" File: Users\media\Desktop\5.20 spectrum\45c.SS
" SCOPE->  Wave:699.31nm  Pix:1050  Val:1024.000  Time:500ms  Avg:1  Sm:1  Sg:0  Tc:off  SNAP  Xt:3  Ch:1  Xtrig
 191.00  1.0007E+003
 191.50  1.0217E+003
 192.00  1.0262E+003
 192.50  1.0431E+003
 193.00  1.0460E+003
 193.50  1.0119E+003
 194.00  1.0012E+003
 194.50  1.0362E+003
 195.00  1.0415E+003
 195.50  1.0289E+003
 196.00  1.0717E+003
 196.50  1.0887E+003
 197.00  1.0844E+003
 197.50  1.0670E+003
 198.00  1.0274E+003
 198.50  1.0091E+003
 199.00  1.0386E+003
 199.50  1.0308E+003
 200.00  1.0399E+003
 200.50  1.0471E+003
 201.00  1.0176E+003
 201.50  1.0291E+003
 202.00  1.0213E+003
 202.50  1.0218E+003
 203.00  1.0222E+003
 203.50  1.0193E+003
 204.00  1.0204E+003
 204.50  1.0276E+003
 205.00  1.0350E+003
 205.50  1.0410E+003
 206.00  1.0492E+003
 206.50  1.0501E+003
 207.00  1.0434E+003
 207.50  1.0362E+003
 208.00  1.0241E+003
 208.50  1.0135E+003
 209.00  1.0096E+003
 209.50  1.0056E+003
 210.00  9.9844E+002
 210.50  9.9064E+002
 211.00  9.8335E+002
 211.50  9.8012E+002
 212.00  9.8566E+002
 212.50  9.9516E+002
 213.00  1.0064E+003
 213.50  1.0181E+003
 214.00  1.0231E+003
 214.50  1.0261E+003
 215.00  1.0315E+003
 215.50  1.0343E+003
 216.00  1.0417E+003
 216.50  1.0501E+003
 217.00  1.0513E+003
 217.50  1.0463E+003
 218.00  1.0416E+003
 218.50  1.0379E+003
 219.00  1.0369E+003
 219.50  1.0469E+003
 220.00  1.0553E+003
 220.50  1.0595E+003
 221.00  1.0615E+003
 221.50  1.0595E+003
 222.00  1.0452E+003
 222.50  1.0284E+003
 223.00  1.0189E+003
 223.50  1.0165E+003
 224.00  1.0185E+003
 224.50  1.0262E+003
 225.00  1.0412E+003
 225.50  1.0605E+003
 226.00  1.0740E+003
 226.50  1.0717E+003
 227.00  1.0653E+003
 227.50  1.0544E+003
 228.00  1.0429E+003
 228.50  1.0344E+003
 229.00  1.0385E+003
 229.50  1.0449E+003
 230.00  1.0463E+003
 230.50  1.0459E+003
 231.00  1.0451E+003
 231.50  1.0443E+003
 232.00  1.0396E+003
 232.50  1.0355E+003
 233.00  1.0410E+003
 233.50  1.0482E+003
 234.00  1.0511E+003
 234.50  1.0537E+003
 235.00  1.0624E+003
 235.50  1.0614E+003
 236.00  1.0525E+003
 236.50  1.0438E+003
 237.00  1.0350E+003
 237.50  1.0268E+003
 238.00  1.0205E+003
 238.50  1.0255E+003
 239.00  1.0342E+003
 239.50  1.0401E+003
 240.00  1.0495E+003
 240.50  1.0631E+003
 241.00  1.0687E+003
 241.50  1.0599E+003
 242.00  1.0532E+003
 242.50  1.0544E+003
 243.00  1.0430E+003
 243.50  1.0355E+003
 244.00  1.0257E+003
 244.50  1.0158E+003
 245.00  1.0034E+003
 245.50  9.9455E+002
 246.00  9.8887E+002
 246.50  9.8939E+002
 247.00  1.0002E+003
 247.50  1.0175E+003
 248.00  1.0329E+003
 248.50  1.0402E+003
 249.00  1.0384E+003
 249.50  1.0366E+003
 250.00  1.0332E+003
 250.50  1.0312E+003
 251.00  1.0230E+003
 251.50  1.0355E+003
 252.00  1.0437E+003
 252.50  1.0445E+003
 253.00  1.0460E+003
 253.50  1.0552E+003
 254.00  1.0552E+003
 254.50  1.0512E+003
 255.00  1.0518E+003
 255.50  1.0519E+003
 256.00  1.0442E+003
 256.50  1.0362E+003
 257.00  1.0389E+003
 257.50  1.0387E+003
 258.00  1.0321E+003
 258.50  1.0333E+003
 259.00  1.0389E+003
 259.50  1.0371E+003
 260.00  1.0439E+003
 260.50  1.0536E+003
 261.00  1.0523E+003
 261.50  1.0526E+003
 262.00  1.0529E+003
 262.50  1.0468E+003
 263.00  1.0400E+003
 263.50  1.0382E+003
 264.00  1.0392E+003
 264.50  1.0435E+003
 265.00  1.0505E+003
 265.50  1.0557E+003
 266.00  1.0642E+003
 266.50  1.0652E+003
 267.00  1.0581E+003
 267.50  1.0428E+003
 268.00  1.0422E+003
 268.50  1.0359E+003
 269.00  1.0336E+003
 269.50  1.0484E+003
 270.00  1.0580E+003
 270.50  1.0551E+003
 271.00  1.0428E+003
 271.50  1.0225E+003
 272.00  1.0002E+003
 272.50  9.8708E+002
 273.00  9.8484E+002
 273.50  9.8976E+002
 274.00  1.0024E+003
 274.50  1.0198E+003
 275.00  1.0322E+003
 275.50  1.0391E+003
 276.00  1.0475E+003
 276.50  1.0470E+003
 277.00  1.0387E+003
 277.50  1.0273E+003
 278.00  1.0204E+003
 278.50  1.0141E+003
 279.00  1.0119E+003
 279.50  1.0170E+003
 280.00  1.0166E+003
 280.50  1.0165E+003
 281.00  1.0116E+003
 281.50  1.0022E+003
 282.00  9.9396E+002
 282.50  9.9352E+002
 283.00  9.9675E+002
 283.50  9.9805E+002
 284.00  1.0008E+003
 284.50  1.0037E+003
 285.00  1.0039E+003
 285.50  1.0057E+003
 286.00  1.0165E+003
 286.50  1.0217E+003
 287.00  1.0312E+003
 287.50  1.0404E+003
 288.00  1.0429E+003
 288.50  1.0443E+003
 289.00  1.0468E+003
 289.50  1.0380E+003
 290.00  1.0290E+003
 290.50  1.0210E+003
 291.00  1.0060E+003
 291.50  9.9232E+002
 292.00  9.9305E+002
 292.50  1.0010E+003
 293.00  1.0113E+003
 293.50  1.0237E+003
 294.00  1.0330E+003
 294.50  1.0375E+003
 295.00  1.0383E+003
 295.50  1.0354E+003
 296.00  1.0247E+003
 296.50  1.0160E+003
 297.00  1.0044E+003
 297.50  9.9346E+002
 298.00  9.8928E+002
 298.50  9.9961E+002
 299.00  1.0036E+003
 299.50  1.0140E+003
 300.00  1.0203E+003
 300.50  1.0176E+003
 301.00  1.0107E+003
 301.50  1.0120E+003
 302.00  1.0160E+003
 302.50  1.0184E+003
 303.00  1.0183E+003
 303.50  1.0156E+003
 304.00  1.0118E+003
 304.50  1.0088E+003
 305.00  1.0087E+003
 305.50  1.0152E+003
 306.00  1.0257E+003
 306.50  1.0323E+003
 307.00  1.0360E+003
 307.50  1.0332E+003
 308.00  1.0213E+003
 308.50  1.0060E+003
 309.00  1.0045E+003
 309.50  1.0003E+003
 310.00  1.0015E+003
 310.50  1.0173E+003
 311.00  1.0315E+003
 311.50  1.0292E+003
 312.00  1.0221E+003
 312.50  1.0148E+003
 313.00  1.0079E+003
 313.50  1.0048E+003
 314.00  1.0038E+003
 314.50  1.0039E+003
 315.00  1.0058E+003
 315.50  1.0045E+003
 316.00  1.0040E+003
 316.50  1.0074E+003
 317.00  1.0096E+003
 317.50  1.0091E+003
 318.00  1.0108E+003
 318.50  1.0150E+003
 319.00  1.0187E+003
 319.50  1.0259E+003
 320.00  1.0385E+003
 320.50  1.0520E+003
 321.00  1.0630E+003
 321.50  1.0656E+003
 322.00  1.0612E+003
 322.50  1.0497E+003
 323.00  1.0344E+003
 323.50  1.0184E+003
 324.00  1.0041E+003
 324.50  9.9927E+002
 325.00  1.0021E+003
 325.50  1.0094E+003
 326.00  1.0124E+003
 326.50  1.0214E+003
 327.00  1.0290E+003
 327.50  1.0377E+003
 328.00  1.0388E+003
 328.50  1.0423E+003
 329.00  1.0434E+003
 329.50  1.0374E+003
 330.00  1.0255E+003
 330.50  1.0182E+003
 331.00  1.0161E+003
 331.50  1.0174E+003
 332.00  1.0230E+003
 332.50  1.0288E+003
 333.00  1.0330E+003
 333.50  1.0376E+003
 334.00  1.0389E+003
 334.50  1.0315E+003
 335.00  1.0303E+003
 335.50  1.0307E+003
 336.00  1.0256E+003
 336.50  1.0154E+003
 337.00  1.0113E+003
 337.50  1.0113E+003
 338.00  1.0137E+003
 338.50  1.0167E+003
 339.00  1.0149E+003
 339.50  1.0182E+003
 340.00  1.0170E+003
 340.50  1.0128E+003
 341.00  1.0133E+003
 341.50  1.0171E+003
 342.00  1.0178E+003
 342.50  1.0198E+003
 343.00  1.0252E+003
 343.50  1.0197E+003
 344.00  1.0146E+003
 344.50  1.0148E+003
 345.00  1.0145E+003
 345.50  1.0104E+003
 346.00  1.0138E+003
 346.50  1.0222E+003
 347.00  1.0342E+003
 347.50  1.0447E+003
 348.00  1.0532E+003
 348.50  1.0575E+003
 349.00  1.0564E+003
 349.50  1.0523E+003
 350.00  1.0473E+003
 350.50  1.0413E+003
 351.00  1.0356E+003
 351.50  1.0334E+003
 352.00  1.0309E+003
 352.50  1.0349E+003
 353.00  1.0461E+003
 353.50  1.0579E+003
 354.00  1.0624E+003
 354.50  1.0640E+003
 355.00  1.0546E+003
 355.50  1.0395E+003
 356.00  1.0222E+003
 356.50  1.0136E+003
 357.00  1.0110E+003
 357.50  1.0115E+003
 358.00  1.0142E+003
 358.50  1.0171E+003
 359.00  1.0222E+003
 359.50  1.0265E+003
 360.00  1.0302E+003
 360.50  1.0306E+003
 361.00  1.0396E+003
 361.50  1.0430E+003
 362.00  1.0427E+003
 362.50  1.0428E+003
 363.00  1.0382E+003
 363.50  1.0282E+003
 364.00  1.0244E+003
 364.50  1.0215E+003
 365.00  1.0221E+003
 365.50  1.0308E+003
 366.00  1.0425E+003
 366.50  1.0481E+003
 367.00  1.0526E+003
 367.50  1.0522E+003
 368.00  1.0452E+003
 368.50  1.0392E+003
 369.00  1.0359E+003
 369.50  1.0341E+003
 370.00  1.0342E+003
 370.50  1.0367E+003
 371.00  1.0368E+003
 371.50  1.0330E+003
 372.00  1.0254E+003
 372.50  1.0241E+003
 373.00  1.0249E+003
 373.50  1.0247E+003
 374.00  1.0271E+003
 374.50  1.0322E+003
 375.00  1.0325E+003
 375.50  1.0325E+003
 376.00  1.0378E+003
 376.50  1.0383E+003
 377.00  1.0404E+003
 377.50  1.0450E+003
 378.00  1.0479E+003
 378.50  1.0452E+003
 379.00  1.0420E+003
 379.50  1.0357E+003
 380.00  1.0233E+003
 380.50  1.0167E+003
 381.00  1.0139E+003
 381.50  1.0117E+003
 382.00  1.0089E+003
 382.50  1.0121E+003
 383.00  1.0097E+003
 383.50  1.0054E+003
 384.00  1.0013E+003
 384.50  1.0031E+003
 385.00  1.0098E+003
 385.50  1.0187E+003
 386.00  1.0217E+003
 386.50  1.0169E+003
 387.00  1.0100E+003
 387.50  1.0027E+003
 388.00  9.9150E+002
 388.50  9.8772E+002
 389.00  1.0008E+003
 389.50  1.0171E+003
 390.00  1.0299E+003
 390.50  1.0435E+003
 391.00  1.0457E+003
 391.50  1.0433E+003
 392.00  1.0406E+003
 392.50  1.0225E+003
 393.00  1.0079E+003
 393.50  1.0013E+003
 394.00  1.0135E+003
 394.50  1.0269E+003
 395.00  1.0454E+003
 395.50  1.0532E+003
 396.00  1.0603E+003
 396.50  1.0493E+003
 397.00  1.0345E+003
 397.50  1.0238E+003
 398.00  1.0167E+003
 398.50  1.0034E+003
 399.00  9.9092E+002
 399.50  9.8199E+002
 400.00  9.7960E+002
 400.50  9.7701E+002
 401.00  9.8831E+002
 401.50  1.0007E+003
 402.00  1.0101E+003
 402.50  1.0206E+003
 403.00  1.0370E+003
 403.50  1.0540E+003
 404.00  1.0688E+003
 404.50  1.0871E+003
 405.00  1.0882E+003
 405.50  1.0853E+003
 406.00  1.0804E+003
 406.50  1.0686E+003
 407.00  1.0561E+003
 407.50  1.0504E+003
 408.00  1.0477E+003
 408.50  1.0449E+003
 409.00  1.0538E+003
 409.50  1.0548E+003
 410.00  1.0561E+003
 410.50  1.0598E+003
 411.00  1.0560E+003
 411.50  1.0497E+003
 412.00  1.0530E+003
 412.50  1.0555E+003
 413.00  1.0564E+003
 413.50  1.0712E+003
 414.00  1.0826E+003
 414.50  1.0942E+003
 415.00  1.0994E+003
 415.50  1.1091E+003
 416.00  1.1049E+003
 416.50  1.1034E+003
 417.00  1.0909E+003
 417.50  1.0916E+003
 418.00  1.0963E+003
 418.50  1.1169E+003
 419.00  1.1315E+003
 419.50  1.1447E+003
 420.00  1.1536E+003
 420.50  1.1554E+003
 421.00  1.1608E+003
 421.50  1.1808E+003
 422.00  1.2119E+003
 422.50  1.2501E+003
 423.00  1.2917E+003
 423.50  1.3178E+003
 424.00  1.3536E+003
 424.50  1.3840E+003
 425.00  1.4099E+003
 425.50  1.4233E+003
 426.00  1.4382E+003
 426.50  1.4432E+003
 427.00  1.4429E+003
 427.50  1.4324E+003
 428.00  1.4361E+003
 428.50  1.4502E+003
 429.00  1.4630E+003
 429.50  1.4883E+003
 430.00  1.5342E+003
 430.50  1.5700E+003
 431.00  1.5996E+003
 431.50  1.6248E+003
 432.00  1.6469E+003
 432.50  1.6616E+003
 433.00  1.6886E+003
 433.50  1.7791E+003
 434.00  2.1244E+003
 434.50  2.7313E+003
 435.00  3.2423E+003
 435.50  3.4982E+003
 436.00  3.5422E+003
 436.50  3.2777E+003
 437.00  2.7501E+003
 437.50  2.3160E+003
 438.00  2.1074E+003
 438.50  2.0326E+003
 439.00  2.0032E+003
 439.50  1.9908E+003
 440.00  1.9957E+003
 440.50  2.0206E+003
 441.00  2.0391E+003
 441.50  2.0501E+003
 442.00  2.0569E+003
 442.50  2.0587E+003
 443.00  2.0597E+003
 443.50  2.0683E+003
 444.00  2.0862E+003
 444.50  2.1120E+003
 445.00  2.1361E+003
 445.50  2.1482E+003
 446.00  2.1569E+003
 446.50  2.1705E+003
 447.00  2.1868E+003
 447.50  2.2039E+003
 448.00  2.2228E+003
 448.50  2.2379E+003
 449.00  2.2563E+003
 449.50  2.2735E+003
 450.00  2.2914E+003
 450.50  2.3083E+003
 451.00  2.3169E+003
 451.50  2.3115E+003
 452.00  2.2966E+003
 452.50  2.2719E+003
 453.00  2.2564E+003
 453.50  2.2487E+003
 454.00  2.2459E+003
 454.50  2.2540E+003
 455.00  2.2634E+003
 455.50  2.2474E+003
 456.00  2.2418E+003
 456.50  2.2278E+003
 457.00  2.2074E+003
 457.50  2.2097E+003
 458.00  2.2284E+003
 458.50  2.2236E+003
 459.00  2.2151E+003
 459.50  2.2181E+003
 460.00  2.2115E+003
 460.50  2.1893E+003
 461.00  2.1808E+003
 461.50  2.1897E+003
 462.00  2.1993E+003
 462.50  2.2154E+003
 463.00  2.2426E+003
 463.50  2.2672E+003
 464.00  2.2773E+003
 464.50  2.2654E+003
 465.00  2.2310E+003
 465.50  2.1907E+003
 466.00  2.1509E+003
 466.50  2.1257E+003
 467.00  2.1134E+003
 467.50  2.1196E+003
 468.00  2.1374E+003
 468.50  2.1496E+003
 469.00  2.1540E+003
 469.50  2.1632E+003
 470.00  2.1624E+003
 470.50  2.1602E+003
 471.00  2.1733E+003
 471.50  2.1803E+003
 472.00  2.1806E+003
 472.50  2.1934E+003
 473.00  2.1952E+003
 473.50  2.1853E+003
 474.00  2.1916E+003
 474.50  2.1984E+003
 475.00  2.2176E+003
 475.50  2.2500E+003
 476.00  2.2830E+003
 476.50  2.2967E+003
 477.00  2.3108E+003
 477.50  2.3139E+003
 478.00  2.3263E+003
 478.50  2.3345E+003
 479.00  2.3532E+003
 479.50  2.3734E+003
 480.00  2.3872E+003
 480.50  2.4129E+003
 481.00  2.4507E+003
 481.50  2.5231E+003
 482.00  2.6326E+003
 482.50  2.7758E+003
 483.00  2.9486E+003
 483.50  3.1612E+003
 484.00  3.4083E+003
 484.50  3.6774E+003
 485.00  3.9427E+003
 485.50  4.1918E+003
 486.00  4.4099E+003
 486.50  4.5662E+003
 487.00  4.6556E+003
 487.50  4.7040E+003
 488.00  4.7241E+003
 488.50  4.7117E+003
 489.00  4.6707E+003
 489.50  4.6152E+003
 490.00  4.5480E+003
 490.50  4.4596E+003
 491.00  4.3502E+003
 491.50  4.2470E+003
 492.00  4.1414E+003
 492.50  4.0237E+003
 493.00  3.8940E+003
 493.50  3.7564E+003
 494.00  3.6168E+003
 494.50  3.4819E+003
 495.00  3.3842E+003
 495.50  3.3201E+003
 496.00  3.2741E+003
 496.50  3.2310E+003
 497.00  3.1748E+003
 497.50  3.0841E+003
 498.00  2.9661E+003
 498.50  2.8407E+003
 499.00  2.7064E+003
 499.50  2.5701E+003
 500.00  2.4431E+003
 500.50  2.3292E+003
 501.00  2.2129E+003
 501.50  2.1118E+003
 502.00  2.0300E+003
 502.50  1.9577E+003
 503.00  1.8993E+003
 503.50  1.8542E+003
 504.00  1.8152E+003
 504.50  1.7803E+003
 505.00  1.7392E+003
 505.50  1.7023E+003
 506.00  1.6883E+003
 506.50  1.6755E+003
 507.00  1.6657E+003
 507.50  1.6687E+003
 508.00  1.6684E+003
 508.50  1.6601E+003
 509.00  1.6470E+003
 509.50  1.6338E+003
 510.00  1.6204E+003
 510.50  1.6115E+003
 511.00  1.5998E+003
 511.50  1.5818E+003
 512.00  1.5615E+003
 512.50  1.5373E+003
 513.00  1.5034E+003
 513.50  1.4738E+003
 514.00  1.4608E+003
 514.50  1.4608E+003
 515.00  1.4632E+003
 515.50  1.4681E+003
 516.00  1.4758E+003
 516.50  1.4708E+003
 517.00  1.4498E+003
 517.50  1.4336E+003
 518.00  1.4223E+003
 518.50  1.4003E+003
 519.00  1.3673E+003
 519.50  1.3442E+003
 520.00  1.3258E+003
 520.50  1.3107E+003
 521.00  1.3073E+003
 521.50  1.3101E+003
 522.00  1.3035E+003
 522.50  1.2965E+003
 523.00  1.2872E+003
 523.50  1.2792E+003
 524.00  1.2786E+003
 524.50  1.2861E+003
 525.00  1.2988E+003
 525.50  1.3139E+003
 526.00  1.3237E+003
 526.50  1.3279E+003
 527.00  1.3216E+003
 527.50  1.3082E+003
 528.00  1.2927E+003
 528.50  1.2787E+003
 529.00  1.2759E+003
 529.50  1.2808E+003
 530.00  1.2905E+003
 530.50  1.3014E+003
 531.00  1.3098E+003
 531.50  1.3338E+003
 532.00  1.3725E+003
 532.50  1.4057E+003
 533.00  1.4397E+003
 533.50  1.4787E+003
 534.00  1.5017E+003
 534.50  1.5232E+003
 535.00  1.5580E+003
 535.50  1.6053E+003
 536.00  1.6735E+003
 536.50  1.7953E+003
 537.00  1.9813E+003
 537.50  2.2191E+003
 538.00  2.5023E+003
 538.50  2.8591E+003
 539.00  3.2984E+003
 539.50  3.8943E+003
 540.00  4.8737E+003
 540.50  6.3760E+003
 541.00  8.1932E+003
 541.50  1.0064E+004
 542.00  1.1791E+004
 542.50  1.2984E+004
 543.00  1.3398E+004
 543.50  1.3204E+004
 544.00  1.3313E+004
 544.50  1.4156E+004
 545.00  1.4349E+004
 545.50  1.3588E+004
 546.00  1.2295E+004
 546.50  1.0082E+004
 547.00  7.4140E+003
 547.50  5.6554E+003
 548.00  4.8923E+003
 548.50  4.5681E+003
 549.00  4.3489E+003
 549.50  4.1202E+003
 550.00  3.8545E+003
 550.50  3.5995E+003
 551.00  3.4154E+003
 551.50  3.2732E+003
 552.00  3.0925E+003
 552.50  2.8805E+003
 553.00  2.6228E+003
 553.50  2.3343E+003
 554.00  2.0736E+003
 554.50  1.8635E+003
 555.00  1.6997E+003
 555.50  1.5894E+003
 556.00  1.5224E+003
 556.50  1.4732E+003
 557.00  1.4415E+003
 557.50  1.4215E+003
 558.00  1.3887E+003
 558.50  1.3592E+003
 559.00  1.3332E+003
 559.50  1.3028E+003
 560.00  1.2735E+003
 560.50  1.2691E+003
 561.00  1.2729E+003
 561.50  1.2701E+003
 562.00  1.2599E+003
 562.50  1.2486E+003
 563.00  1.2256E+003
 563.50  1.1962E+003
 564.00  1.1737E+003
 564.50  1.1555E+003
 565.00  1.1399E+003
 565.50  1.1386E+003
 566.00  1.1430E+003
 566.50  1.1537E+003
 567.00  1.1664E+003
 567.50  1.1746E+003
 568.00  1.1731E+003
 568.50  1.1715E+003
 569.00  1.1643E+003
 569.50  1.1555E+003
 570.00  1.1526E+003
 570.50  1.1539E+003
 571.00  1.1614E+003
 571.50  1.1651E+003
 572.00  1.1758E+003
 572.50  1.1887E+003
 573.00  1.1972E+003
 573.50  1.2001E+003
 574.00  1.2111E+003
 574.50  1.2323E+003
 575.00  1.3509E+003
 575.50  1.5299E+003
 576.00  1.6593E+003
 576.50  1.7467E+003
 577.00  1.8342E+003
 577.50  1.8943E+003
 578.00  1.9440E+003
 578.50  2.0300E+003
 579.00  2.1121E+003
 579.50  2.0799E+003
 580.00  1.9998E+003
 580.50  1.9479E+003
 581.00  1.9366E+003
 581.50  1.9812E+003
 582.00  2.0646E+003
 582.50  2.1464E+003
 583.00  2.2057E+003
 583.50  2.2143E+003
 584.00  2.1633E+003
 584.50  2.0857E+003
 585.00  2.0372E+003
 585.50  2.0641E+003
 586.00  2.1449E+003
 586.50  2.2146E+003
 587.00  2.2377E+003
 587.50  2.1772E+003
 588.00  2.0462E+003
 588.50  1.9031E+003
 589.00  1.7875E+003
 589.50  1.6964E+003
 590.00  1.6343E+003
 590.50  1.5950E+003
 591.00  1.5729E+003
 591.50  1.5668E+003
 592.00  1.5795E+003
 592.50  1.5681E+003
 593.00  1.5299E+003
 593.50  1.4681E+003
 594.00  1.3964E+003
 594.50  1.3347E+003
 595.00  1.2884E+003
 595.50  1.2472E+003
 596.00  1.2172E+003
 596.50  1.2014E+003
 597.00  1.2032E+003
 597.50  1.2117E+003
 598.00  1.2354E+003
 598.50  1.2582E+003
 599.00  1.2667E+003
 599.50  1.2512E+003
 600.00  1.2313E+003
 600.50  1.2012E+003
 601.00  1.1631E+003
 601.50  1.1370E+003
 602.00  1.1181E+003
 602.50  1.0978E+003
 603.00  1.0942E+003
 603.50  1.0958E+003
 604.00  1.1070E+003
 604.50  1.1259E+003
 605.00  1.1375E+003
 605.50  1.1411E+003
 606.00  1.1440E+003
 606.50  1.1426E+003
 607.00  1.1477E+003
 607.50  1.1503E+003
 608.00  1.1595E+003
 608.50  1.1981E+003
 609.00  1.3118E+003
 609.50  1.5202E+003
 610.00  1.7208E+003
 610.50  1.8411E+003
 611.00  1.8610E+003
 611.50  1.7473E+003
 612.00  1.5609E+003
 612.50  1.4068E+003
 613.00  1.3127E+003
 613.50  1.2718E+003
 614.00  1.2462E+003
 614.50  1.2252E+003
 615.00  1.2031E+003
 615.50  1.1698E+003
 616.00  1.1291E+003
 616.50  1.1025E+003
 617.00  1.0857E+003
 617.50  1.0705E+003
 618.00  1.0712E+003
 618.50  1.0779E+003
 619.00  1.0757E+003
 619.50  1.0787E+003
 620.00  1.0888E+003
 620.50  1.0926E+003
 621.00  1.0905E+003
 621.50  1.0854E+003
 622.00  1.0757E+003
 622.50  1.0734E+003
 623.00  1.0730E+003
 623.50  1.0751E+003
 624.00  1.0823E+003
 624.50  1.0829E+003
 625.00  1.0789E+003
 625.50  1.0833E+003
 626.00  1.0823E+003
 626.50  1.0781E+003
 627.00  1.0721E+003
 627.50  1.0606E+003
 628.00  1.0523E+003
 628.50  1.0574E+003
 629.00  1.0593E+003
 629.50  1.0741E+003
 630.00  1.0874E+003
 630.50  1.0841E+003
 631.00  1.0775E+003
 631.50  1.0702E+003
 632.00  1.0516E+003
 632.50  1.0470E+003
 633.00  1.0466E+003
 633.50  1.0456E+003
 634.00  1.0489E+003
 634.50  1.0528E+003
 635.00  1.0469E+003
 635.50  1.0399E+003
 636.00  1.0338E+003
 636.50  1.0203E+003
 637.00  1.0165E+003
 637.50  1.0185E+003
 638.00  1.0204E+003
 638.50  1.0134E+003
 639.00  1.0071E+003
 639.50  1.0003E+003
 640.00  9.9736E+002
 640.50  1.0074E+003
 641.00  1.0086E+003
 641.50  1.0087E+003
 642.00  1.0134E+003
 642.50  1.0159E+003
 643.00  1.0183E+003
 643.50  1.0324E+003
 644.00  1.0447E+003
 644.50  1.0465E+003
 645.00  1.0449E+003
 645.50  1.0314E+003
 646.00  1.0162E+003
 646.50  1.0095E+003
 647.00  1.0102E+003
 647.50  1.0130E+003
 648.00  1.0163E+003
 648.50  1.0132E+003
 649.00  1.0072E+003
 649.50  1.0049E+003
 650.00  1.0202E+003
 650.50  1.0317E+003
 651.00  1.0528E+003
 651.50  1.0656E+003
 652.00  1.0658E+003
 652.50  1.0624E+003
 653.00  1.0506E+003
 653.50  1.0328E+003
 654.00  1.0299E+003
 654.50  1.0263E+003
 655.00  1.0234E+003
 655.50  1.0304E+003
 656.00  1.0375E+003
 656.50  1.0418E+003
 657.00  1.0511E+003
 657.50  1.0634E+003
 658.00  1.0636E+003
 658.50  1.0567E+003
 659.00  1.0421E+003
 659.50  1.0318E+003
 660.00  1.0260E+003
 660.50  1.0338E+003
 661.00  1.0476E+003
 661.50  1.0637E+003
 662.00  1.0781E+003
 662.50  1.0867E+003
 663.00  1.0903E+003
 663.50  1.0803E+003
 664.00  1.0568E+003
 664.50  1.0286E+003
 665.00  1.0075E+003
 665.50  1.0083E+003
 666.00  1.0172E+003
 666.50  1.0317E+003
 667.00  1.0478E+003
 667.50  1.0561E+003
 668.00  1.0560E+003
 668.50  1.0595E+003
 669.00  1.0605E+003
 669.50  1.0557E+003
 670.00  1.0571E+003
 670.50  1.0519E+003
 671.00  1.0502E+003
 671.50  1.0443E+003
 672.00  1.0434E+003
 672.50  1.0422E+003
 673.00  1.0362E+003
 673.50  1.0377E+003
 674.00  1.0231E+003
 674.50  1.0093E+003
 675.00  9.9905E+002
 675.50  9.9354E+002
 676.00  9.9708E+002
 676.50  1.0116E+003
 677.00  1.0221E+003
 677.50  1.0211E+003
 678.00  1.0247E+003
 678.50  1.0204E+003
 679.00  1.0117E+003
 679.50  1.0071E+003
 680.00  1.0026E+003
 680.50  9.9458E+002
 681.00  9.9324E+002
 681.50  9.9278E+002
 682.00  9.9848E+002
 682.50  1.0066E+003
 683.00  1.0197E+003
 683.50  1.0308E+003
 684.00  1.0350E+003
 684.50  1.0425E+003
 685.00  1.0484E+003
 685.50  1.0426E+003
 686.00  1.0460E+003
 686.50  1.0525E+003
 687.00  1.0500E+003
 687.50  1.0562E+003
 688.00  1.0664E+003
 688.50  1.0599E+003
 689.00  1.0448E+003
 689.50  1.0338E+003
 690.00  1.0256E+003
 690.50  1.0170E+003
 691.00  1.0215E+003
 691.50  1.0314E+003
 692.00  1.0309E+003
 692.50  1.0312E+003
 693.00  1.0363E+003
 693.50  1.0359E+003
 694.00  1.0385E+003
 694.50  1.0403E+003
 695.00  1.0443E+003
 695.50  1.0369E+003
 696.00  1.0219E+003
 696.50  1.0134E+003
 697.00  1.0096E+003
 697.50  1.0125E+003
 698.00  1.0195E+003
 698.50  1.0296E+003
 699.00  1.0319E+003
 699.50  1.0203E+003
 700.00  1.0145E+003
 700.50  1.0110E+003
 701.00  1.0036E+003
 701.50  1.0091E+003
 702.00  1.0184E+003
 702.50  1.0244E+003
 703.00  1.0296E+003
 703.50  1.0366E+003
 704.00  1.0383E+003
 704.50  1.0401E+003
 705.00  1.0498E+003
 705.50  1.0681E+003
 706.00  1.0756E+003
 706.50  1.0793E+003
 707.00  1.0800E+003
 707.50  1.0760E+003
 708.00  1.0755E+003
 708.50  1.0786E+003
 709.00  1.0864E+003
 709.50  1.0823E+003
 710.00  1.0799E+003
 710.50  1.0853E+003
 711.00  1.0844E+003
 711.50  1.0806E+003
 712.00  1.0700E+003
 712.50  1.0532E+003
 713.00  1.0459E+003
 713.50  1.0398E+003
 714.00  1.0431E+003
 714.50  1.0525E+003
 715.00  1.0513E+003
 715.50  1.0465E+003
 716.00  1.0411E+003
 716.50  1.0374E+003
 717.00  1.0342E+003
 717.50  1.0267E+003
 718.00  1.0220E+003
 718.50  1.0219E+003
 719.00  1.0246E+003
 719.50  1.0292E+003
 720.00  1.0342E+003
 720.50  1.0357E+003
 721.00  1.0331E+003
 721.50  1.0275E+003
 722.00  1.0221E+003
 722.50  1.0178E+003
 723.00  1.0170E+003
 723.50  1.0271E+003
 724.00  1.0313E+003
 724.50  1.0388E+003
 725.00  1.0380E+003
 725.50  1.0281E+003
 726.00  1.0249E+003
 726.50  1.0278E+003
 727.00  1.0239E+003
 727.50  1.0300E+003
 728.00  1.0364E+003
 728.50  1.0345E+003
 729.00  1.0350E+003
 729.50  1.0242E+003
 730.00  1.0049E+003
 730.50  9.9707E+002
 731.00  1.0022E+003
 731.50  1.0095E+003
 732.00  1.0259E+003
 732.50  1.0386E+003
 733.00  1.0418E+003
 733.50  1.0425E+003
 734.00  1.0381E+003
 734.50  1.0332E+003
 735.00  1.0247E+003
 735.50  1.0155E+003
 736.00  1.0133E+003
 736.50  1.0140E+003
 737.00  1.0145E+003
 737.50  1.0165E+003
 738.00  1.0182E+003
 738.50  1.0120E+003
 739.00  1.0065E+003
 739.50  1.0128E+003
 740.00  1.0196E+003
 740.50  1.0182E+003
 741.00  1.0151E+003
 741.50  1.0026E+003
 742.00  9.9142E+002
 742.50  9.9030E+002
 743.00  1.0013E+003
 743.50  1.0170E+003
 744.00  1.0149E+003
 744.50  1.0194E+003
 745.00  1.0251E+003
 745.50  1.0209E+003
 746.00  1.0260E+003
 746.50  1.0296E+003
 747.00  1.0211E+003
 747.50  1.0225E+003
 748.00  1.0389E+003
 748.50  1.0554E+003
 749.00  1.0641E+003
 749.50  1.0597E+003
 750.00  1.0390E+003
 750.50  1.0193E+003
 751.00  1.0109E+003
 751.50  1.0110E+003
 752.00  1.0120E+003
 752.50  1.0098E+003
 753.00  1.0199E+003
 753.50  1.0356E+003
 754.00  1.0494E+003
 754.50  1.0551E+003
 755.00  1.0370E+003
 755.50  1.0093E+003
 756.00  9.9495E+002
 756.50  1.0038E+003
 757.00  1.0283E+003
 757.50  1.0546E+003
 758.00  1.0716E+003
 758.50  1.0720E+003
 759.00  1.0628E+003
 759.50  1.0481E+003
 760.00  1.0281E+003
 760.50  1.0195E+003
 761.00  1.0152E+003
 761.50  1.0138E+003
 762.00  1.0270E+003
 762.50  1.0319E+003
 763.00  1.0291E+003
 763.50  1.0303E+003
 764.00  1.0209E+003
 764.50  1.0157E+003
 765.00  1.0166E+003
 765.50  1.0157E+003
 766.00  1.0266E+003
 766.50  1.0242E+003
 767.00  1.0226E+003
 767.50  1.0218E+003
 768.00  1.0191E+003
 768.50  1.0332E+003
 769.00  1.0522E+003
 769.50  1.0687E+003
 770.00  1.0712E+003
 770.50  1.0661E+003
 771.00  1.0519E+003
 771.50  1.0248E+003
 772.00  1.0158E+003
 772.50  1.0125E+003
 773.00  1.0139E+003
 773.50  1.0196E+003
 774.00  1.0159E+003
 774.50  1.0135E+003
 775.00  1.0175E+003
 775.50  1.0203E+003
 776.00  1.0211E+003
 776.50  1.0191E+003
 777.00  1.0072E+003
 777.50  1.0011E+003
 778.00  1.0087E+003
 778.50  1.0076E+003
 779.00  1.0091E+003
 779.50  1.0093E+003
 780.00  1.0128E+003
 780.50  1.0294E+003
 781.00  1.0347E+003
 781.50  1.0347E+003
 782.00  1.0209E+003
 782.50  9.9521E+002
 783.00  9.8806E+002
 783.50  9.9563E+002
 784.00  1.0063E+003
 784.50  1.0159E+003
 785.00  1.0188E+003
 785.50  1.0181E+003
 786.00  1.0206E+003
 786.50  1.0266E+003
 787.00  1.0328E+003
 787.50  1.0331E+003
 788.00  1.0324E+003
 788.50  1.0286E+003
 789.00  1.0241E+003
 789.50  1.0226E+003
 790.00  1.0194E+003
 790.50  1.0257E+003
 791.00  1.0360E+003
 791.50  1.0399E+003
 792.00  1.0412E+003
 792.50  1.0360E+003
 793.00  1.0295E+003
 793.50  1.0176E+003
 794.00  1.0077E+003
 794.50  9.9767E+002
 795.00  9.8920E+002
 795.50  9.9627E+002
 796.00  1.0023E+003
 796.50  1.0174E+003
 797.00  1.0350E+003
 797.50  1.0399E+003
 798.00  1.0433E+003
 798.50  1.0354E+003
 799.00  1.0270E+003
 799.50  1.0237E+003
 800.00  1.0230E+003
 800.50  1.0287E+003
 801.00  1.0342E+003
 801.50  1.0356E+003
 802.00  1.0484E+003
 802.50  1.0620E+003
 803.00  1.0662E+003
 803.50  1.0643E+003
 804.00  1.0551E+003
 804.50  1.0477E+003
 805.00  1.0459E+003
 805.50  1.0536E+003
 806.00  1.0612E+003
 806.50  1.0671E+003
 807.00  1.0601E+003
 807.50  1.0479E+003
 808.00  1.0433E+003
 808.50  1.0321E+003
 809.00  1.0331E+003
 809.50  1.0346E+003
 810.00  1.0469E+003
 810.50  1.0601E+003
 811.00  1.0698E+003
 811.50  1.0752E+003
 812.00  1.0573E+003
 812.50  1.0360E+003
 813.00  1.0212E+003
 813.50  1.0167E+003
 814.00  1.0195E+003
 814.50  1.0250E+003
 815.00  1.0251E+003
 815.50  1.0203E+003
 816.00  1.0170E+003
 816.50  1.0146E+003
 817.00  1.0110E+003
 817.50  1.0106E+003
 818.00  1.0125E+003
 818.50  1.0162E+003
 819.00  1.0246E+003
 819.50  1.0306E+003
 820.00  1.0336E+003
 820.50  1.0368E+003
 821.00  1.0358E+003
 821.50  1.0374E+003
 822.00  1.0398E+003
 822.50  1.0439E+003
 823.00  1.0448E+003
 823.50  1.0521E+003
 824.00  1.0643E+003
 824.50  1.0711E+003
 825.00  1.0738E+003
 825.50  1.0684E+003
 826.00  1.0559E+003
 826.50  1.0461E+003
 827.00  1.0521E+003
 827.50  1.0494E+003
 828.00  1.0485E+003
 828.50  1.0433E+003
 829.00  1.0300E+003
 829.50  1.0271E+003
 830.00  1.0178E+003
 830.50  1.0102E+003
 831.00  1.0078E+003
 831.50  1.0168E+003
 832.00  1.0196E+003
 832.50  1.0205E+003
 833.00  1.0149E+003
 833.50  1.0043E+003
 834.00  1.0178E+003
 834.50  1.0303E+003
 835.00  1.0294E+003
 835.50  1.0167E+003
 836.00  9.9824E+002
 836.50  9.8836E+002
 837.00  9.9776E+002
 837.50  1.0186E+003
 838.00  1.0407E+003
 838.50  1.0515E+003
 839.00  1.0502E+003
 839.50  1.0566E+003
 840.00  1.0582E+003
 840.50  1.0663E+003
 841.00  1.0811E+003
 841.50  1.0794E+003
 842.00  1.0706E+003
 842.50  1.0604E+003
 843.00  1.0413E+003
 843.50  1.0371E+003
 844.00  1.0323E+003
 844.50  1.0241E+003
 845.00  1.0310E+003
 845.50  1.0324E+003
 846.00  1.0396E+003
 846.50  1.0534E+003
 847.00  1.0590E+003
 847.50  1.0533E+003
 848.00  1.0532E+003
 848.50  1.0566E+003
 849.00  1.0473E+003
 849.50  1.0392E+003
 850.00  1.0251E+003
 850.50  1.0187E+003
 851.00  1.0366E+003
 851.50  1.0592E+003
 852.00  1.0788E+003
 852.50  1.0889E+003
 853.00  1.0785E+003
 853.50  1.0688E+003
 854.00  1.0525E+003
 854.50  1.0216E+003
 855.00  1.0059E+003
 855.50  1.0017E+003
 856.00  1.0061E+003
 856.50  1.0249E+003
 857.00  1.0423E+003
 857.50  1.0549E+003
 858.00  1.0555E+003
 858.50  1.0513E+003
 859.00  1.0567E+003
 859.50  1.0528E+003
 860.00  1.0552E+003
 860.50  1.0597E+003
 861.00  1.0581E+003
 861.50  1.0537E+003
 862.00  1.0545E+003
 862.50  1.0549E+003
 863.00  1.0407E+003
 863.50  1.0354E+003
 864.00  1.0386E+003
 864.50  1.0468E+003
 865.00  1.0533E+003
 865.50  1.0549E+003
 866.00  1.0432E+003
 866.50  1.0280E+003
 867.00  1.0281E+003
 867.50  1.0323E+003
 868.00  1.0249E+003
 868.50  1.0324E+003
 869.00  1.0413E+003
 869.50  1.0504E+003
 870.00  1.0645E+003
 870.50  1.0657E+003
 871.00  1.0628E+003
 871.50  1.0553E+003
 872.00  1.0396E+003
 872.50  1.0395E+003
 873.00  1.0358E+003
 873.50  1.0348E+003
 874.00  1.0394E+003
 874.50  1.0253E+003
 875.00  1.0236E+003
 875.50  1.0295E+003
 876.00  1.0417E+003
 876.50  1.0518E+003
 877.00  1.0517E+003
 877.50  1.0450E+003
 878.00  1.0286E+003
 878.50  1.0097E+003
 879.00  9.9430E+002
 879.50  9.8760E+002
 880.00  9.8697E+002
 880.50  9.9951E+002
 881.00  1.0127E+003
 881.50  1.0287E+003
 882.00  1.0355E+003
 882.50  1.0402E+003
 883.00  1.0381E+003
 883.50  1.0283E+003
 884.00  1.0251E+003
 884.50  1.0199E+003
 885.00  1.0228E+003
 885.50  1.0219E+003
 886.00  1.0311E+003
 886.50  1.0391E+003
 887.00  1.0465E+003
 887.50  1.0479E+003
 888.00  1.0369E+003
 888.50  1.0356E+003
 889.00  1.0361E+003
 889.50  1.0411E+003
 890.00  1.0414E+003
 890.50  1.0300E+003
 891.00  1.0221E+003
 891.50  1.0209E+003
 892.00  1.0254E+003
 892.50  1.0327E+003
 893.00  1.0418E+003
 893.50  1.0481E+003
 894.00  1.0417E+003
 894.50  1.0256E+003
 895.00  1.0117E+003
 895.50  1.0167E+003
 896.00  1.0434E+003
 896.50  1.0652E+003
 897.00  1.0665E+003
 897.50  1.0448E+003
 898.00  1.0196E+003
 898.50  1.0063E+003
 899.00  1.0105E+003
 899.50  1.0228E+003
 900.00  1.0333E+003
 900.50  1.0253E+003
 901.00  1.0173E+003
 901.50  1.0011E+003
 902.00  9.9444E+002
 902.50  9.9833E+002
 903.00  9.9884E+002
 903.50  1.0114E+003
 904.00  1.0247E+003
 904.50  1.0259E+003
 905.00  1.0292E+003
 905.50  1.0266E+003
 906.00  1.0216E+003
 906.50  1.0284E+003
 907.00  1.0282E+003
 907.50  1.0179E+003
 908.00  1.0268E+003
 908.50  1.0311E+003
 909.00  1.0313E+003
 909.50  1.0290E+003
 910.00  1.0147E+003
 910.50  1.0066E+003
 911.00  1.0109E+003
 911.50  1.0211E+003
 912.00  1.0244E+003
 912.50  1.0433E+003
 913.00  1.0455E+003
 913.50  1.0373E+003
 914.00  1.0258E+003
 914.50  1.0094E+003
 915.00  1.0011E+003
 915.50  1.0093E+003
 916.00  1.0201E+003
 916.50  1.0177E+003
 917.00  1.0207E+003
 917.50  1.0101E+003
 918.00  1.0049E+003
 918.50  1.0048E+003
 919.00  1.0065E+003
 919.50  1.0165E+003
 920.00  1.0215E+003
 920.50  1.0272E+003
 921.00  1.0331E+003
 921.50  1.0339E+003
 922.00  1.0319E+003
 922.50  1.0335E+003
 923.00  1.0272E+003
 923.50  1.0351E+003
 924.00  1.0369E+003
 924.50  1.0241E+003
 925.00  1.0129E+003
 925.50  1.0012E+003
 926.00  1.0019E+003
 926.50  1.0141E+003
 927.00  1.0146E+003
 927.50  1.0177E+003
 928.00  1.0147E+003
 928.50  1.0242E+003
 929.00  1.0295E+003
 929.50  1.0406E+003
 930.00  1.0442E+003
 930.50  1.0482E+003
 931.00  1.0440E+003
 931.50  1.0290E+003
 932.00  1.0172E+003
 932.50  1.0057E+003
 933.00  9.9331E+002
 933.50  9.8046E+002
 934.00  9.7338E+002
 934.50  9.8392E+002
 935.00  1.0036E+003
 935.50  1.0188E+003
 936.00  1.0292E+003
 936.50  1.0260E+003
 937.00  1.0302E+003
 937.50  1.0463E+003
 938.00  1.0433E+003
 938.50  1.0323E+003
 939.00  1.0180E+003
 939.50  1.0063E+003
 940.00  1.0105E+003
 940.50  1.0077E+003
 941.00  1.0102E+003
 941.50  1.0075E+003
 942.00  1.0072E+003
 942.50  1.0150E+003
 943.00  1.0098E+003
 943.50  1.0076E+003
 944.00  1.0010E+003
 944.50  9.9529E+002
 945.00  9.9578E+002
 945.50  9.9772E+002
 946.00  1.0164E+003
 946.50  1.0341E+003
 947.00  1.0467E+003
 947.50  1.0446E+003
 948.00  1.0438E+003
 948.50  1.0395E+003
 949.00  1.0374E+003
 949.50  1.0379E+003
 950.00  1.0235E+003
 950.50  1.0133E+003
 951.00  1.0077E+003
 951.50  1.0121E+003
 952.00  1.0201E+003
 952.50  1.0196E+003
 953.00  1.0189E+003
 953.50  1.0129E+003
 954.00  1.0077E+003
 954.50  1.0024E+003
 955.00  9.9688E+002
 955.50  9.9354E+002
 956.00  9.9017E+002
 956.50  9.8361E+002
 957.00  9.9314E+002
 957.50  1.0034E+003
 958.00  1.0148E+003
 958.50  1.0117E+003
 959.00  1.0046E+003
 959.50  1.0164E+003
 960.00  1.0349E+003
 960.50  1.0379E+003
 961.00  1.0243E+003
 961.50  9.9856E+002
 962.00  9.9069E+002
 962.50  1.0004E+003
 963.00  1.0046E+003
 963.50  1.0033E+003
 964.00  1.0044E+003
 964.50  1.0187E+003
 965.00  1.0377E+003
 965.50  1.0552E+003
 966.00  1.0487E+003
 966.50  1.0358E+003
 967.00  1.0196E+003
 967.50  1.0021E+003
 968.00  9.9918E+002
 968.50  1.0094E+003
 969.00  1.0258E+003
 969.50  1.0366E+003
 970.00  1.0361E+003
 970.50  1.0183E+003
 971.00  1.0054E+003
 971.50  1.0001E+003
 972.00  9.9283E+002
 972.50  9.9816E+002
 973.00  1.0044E+003
 973.50  1.0010E+003
 974.00  1.0015E+003
 974.50  9.8937E+002
 975.00  9.7936E+002
 975.50  9.7632E+002
 976.00  9.6349E+002
 976.50  9.7109E+002
 977.00  9.8008E+002
 977.50  1.0028E+003
 978.00  1.0213E+003
 978.50  1.0268E+003
 979.00  1.0290E+003
 979.50  1.0187E+003
 980.00  1.0084E+003
 980.50  9.9229E+002
 981.00  9.8396E+002
 981.50  9.9659E+002
 982.00  1.0202E+003
 982.50  1.0414E+003
 983.00  1.0439E+003
 983.50  1.0497E+003
 984.00  1.0466E+003
 984.50  1.0476E+003
 985.00  1.0525E+003
 985.50  1.0483E+003
 986.00  1.0472E+003
 986.50  1.0444E+003
 987.00  1.0326E+003
 987.50  1.0188E+003
 988.00  1.0022E+003
 988.50  9.9408E+002
 989.00  9.9344E+002
 989.50  9.9936E+002
 990.00  1.0241E+003
 990.50  1.0408E+003
 991.00  1.0513E+003
 991.50  1.0439E+003
 992.00  1.0320E+003
 992.50  1.0474E+003
 993.00  1.0503E+003
 993.50  1.0444E+003
 994.00  1.0328E+003
 994.50  1.0218E+003
 995.00  1.0203E+003
 995.50  1.0242E+003
 996.00  1.0242E+003
 996.50  1.0295E+003
 997.00  1.0398E+003
 997.50  1.0483E+003
 998.00  1.0392E+003
 998.50  1.0161E+003
 999.00  1.0047E+003
 999.50  9.9265E+002
1000.00  9.9994E+002
1000.50  1.0090E+003
1001.00  1.0046E+003
1001.50  1.0102E+003
1002.00  1.0197E+003
1002.50  1.0153E+003
1003.00  1.0119E+003
1003.50  9.9967E+002
1004.00  9.9801E+002
1004.50  1.0053E+003
1005.00  1.0261E+003
1005.50  1.0468E+003
1006.00  1.0570E+003
1006.50  1.0423E+003
1007.00  1.0253E+003
1007.50  1.0150E+003
1008.00  1.0160E+003
1008.50  1.0249E+003
1009.00  1.0210E+003
1009.50  1.0117E+003
1010.00  1.0049E+003
1010.50  9.9289E+002
1011.00  9.8472E+002
1011.50  9.8230E+002
1012.00  9.9708E+002
1012.50  1.0525E+003
1013.00  1.1471E+003
1013.50  1.2286E+003
1014.00  1.2514E+003
1014.50  1.1951E+003
1015.00  1.1071E+003
1015.50  1.0447E+003
1016.00  1.0053E+003
1016.50  9.9237E+002
1017.00  9.9126E+002
1017.50  9.8920E+002
1018.00  9.9700E+002
1018.50  9.9398E+002
1019.00  9.9276E+002
1019.50  9.9471E+002
1020.00  1.0022E+003
1020.50  1.0135E+003
1021.00  1.0193E+003
1021.50  1.0152E+003
1022.00  1.0051E+003
1022.50  9.9793E+002
1023.00  9.9456E+002
1023.50  9.9405E+002
1024.00  9.9295E+002
1024.50  1.0073E+003
1025.00  1.0152E+003
1025.50  1.0161E+003
1026.00  1.0183E+003
1026.50  1.0234E+003
1027.00  1.0338E+003
1027.50  1.0336E+003
1028.00  1.0160E+003
1028.50  1.0067E+003
1029.00  1.0063E+003
1029.50  1.0099E+003
1030.00  1.0107E+003
1030.50  1.0012E+003
1031.00  9.8957E+002
1031.50  9.8240E+002
1032.00  9.6857E+002
1032.50  9.5854E+002
1033.00  9.6230E+002
1033.50  9.7452E+002
1034.00  9.9114E+002
1034.50  1.0024E+003
1035.00  1.0155E+003
1035.50  1.0251E+003
1036.00  1.0283E+003
1036.50  1.0167E+003
1037.00  1.0137E+003
1037.50  1.0134E+003
1038.00  1.0195E+003
1038.50  1.0273E+003
1039.00  1.0236E+003
1039.50  1.0239E+003
1040.00  1.0130E+003
1040.50  1.0018E+003
1041.00  1.0079E+003
1041.50  1.0199E+003
1042.00  1.0270E+003
1042.50  1.0239E+003
1043.00  1.0164E+003
1043.50  1.0171E+003
1044.00  1.0216E+003
1044.50  1.0197E+003
1045.00  1.0304E+003
1045.50  1.0352E+003
1046.00  1.0320E+003
1046.50  1.0190E+003
1047.00  9.9512E+002
1047.50  9.9219E+002
1048.00  9.9254E+002
1048.50  9.9639E+002
1049.00  1.0019E+003
1049.50  1.0027E+003
1050.00  9.9232E+002
1050.50  9.9238E+002
1051.00  9.8700E+002
1051.50  9.8670E+002
1052.00  9.9949E+002
1052.50  1.0009E+003
1053.00  1.0170E+003
1053.50  1.0241E+003
1054.00  1.0205E+003
1054.50  1.0209E+003
1055.00  1.0179E+003
1055.50  1.0102E+003
1056.00  1.0170E+003
1056.50  1.0240E+003
1057.00  1.0115E+003
1057.50  9.9665E+002
1058.00  9.7196E+002
1058.50  9.7408E+002
1059.00  9.9251E+002
1059.50  1.0004E+003
1060.00  1.0089E+003
1060.50  1.0066E+003
1061.00  1.0030E+003
1061.50  1.0023E+003
1062.00  9.9686E+002
1062.50  1.0024E+003
1063.00  9.9725E+002
1063.50  9.8946E+002
1064.00  9.8500E+002
1064.50  9.8469E+002
1065.00  9.9955E+002
1065.50  1.0153E+003
1066.00  1.0131E+003
1066.50  1.0113E+003
1067.00  1.0039E+003
1067.50  1.0165E+003
1068.00  1.0283E+003
1068.50  1.0232E+003
1069.00  1.0111E+003
1069.50  9.9928E+002
1070.00  1.0090E+003
1070.50  1.0168E+003
1071.00  1.0295E+003
1071.50  1.0179E+003
1072.00  1.0176E+003
1072.50  1.0008E+003
1073.00  9.9151E+002
1073.50  9.9556E+002
1074.00  1.0032E+003
1074.50  1.0103E+003
1075.00  1.0105E+003
1075.50  1.0158E+003
1076.00  1.0245E+003
1076.50  1.0264E+003
1077.00  1.0230E+003
1077.50  1.0276E+003
1078.00  1.0321E+003
1078.50  1.0401E+003
1079.00  1.0327E+003
1079.50  1.0157E+003
1080.00  9.9340E+002
1080.50  1.8104E+002
