" File: Users\media\Desktop\5.20 spectrum\45m.SS
" SCOPE->  Wave:699.31nm  Pix:1050  Val:1073.600  Time:500ms  Avg:1  Sm:1  Sg:0  Tc:off  SNAP  Xt:3  Ch:1  Xtrig
 191.00  1.0783E+003
 191.50  1.0610E+003
 192.00  1.0247E+003
 192.50  1.0355E+003
 193.00  1.0362E+003
 193.50  1.0234E+003
 194.00  1.0096E+003
 194.50  1.0500E+003
 195.00  1.0654E+003
 195.50  1.0425E+003
 196.00  1.0400E+003
 196.50  1.0252E+003
 197.00  1.0014E+003
 197.50  1.0225E+003
 198.00  1.0369E+003
 198.50  1.0113E+003
 199.00  9.9845E+002
 199.50  9.7408E+002
 200.00  1.0121E+003
 200.50  1.0299E+003
 201.00  1.0281E+003
 201.50  1.0384E+003
 202.00  1.0335E+003
 202.50  1.0279E+003
 203.00  1.0214E+003
 203.50  1.0131E+003
 204.00  1.0059E+003
 204.50  1.0044E+003
 205.00  1.0101E+003
 205.50  1.0193E+003
 206.00  1.0283E+003
 206.50  1.0362E+003
 207.00  1.0431E+003
 207.50  1.0394E+003
 208.00  1.0354E+003
 208.50  1.0256E+003
 209.00  1.0225E+003
 209.50  1.0239E+003
 210.00  1.0267E+003
 210.50  1.0269E+003
 211.00  1.0274E+003
 211.50  1.0270E+003
 212.00  1.0182E+003
 212.50  1.0076E+003
 213.00  1.0055E+003
 213.50  1.0139E+003
 214.00  1.0228E+003
 214.50  1.0214E+003
 215.00  1.0219E+003
 215.50  1.0282E+003
 216.00  1.0312E+003
 216.50  1.0259E+003
 217.00  1.0302E+003
 217.50  1.0393E+003
 218.00  1.0358E+003
 218.50  1.0227E+003
 219.00  1.0152E+003
 219.50  1.0160E+003
 220.00  1.0124E+003
 220.50  1.0215E+003
 221.00  1.0369E+003
 221.50  1.0419E+003
 222.00  1.0444E+003
 222.50  1.0476E+003
 223.00  1.0466E+003
 223.50  1.0415E+003
 224.00  1.0331E+003
 224.50  1.0250E+003
 225.00  1.0192E+003
 225.50  1.0149E+003
 226.00  1.0136E+003
 226.50  1.0187E+003
 227.00  1.0288E+003
 227.50  1.0369E+003
 228.00  1.0428E+003
 228.50  1.0459E+003
 229.00  1.0434E+003
 229.50  1.0366E+003
 230.00  1.0314E+003
 230.50  1.0247E+003
 231.00  1.0156E+003
 231.50  1.0134E+003
 232.00  1.0167E+003
 232.50  1.0140E+003
 233.00  1.0089E+003
 233.50  1.0157E+003
 234.00  1.0237E+003
 234.50  1.0169E+003
 235.00  1.0164E+003
 235.50  1.0291E+003
 236.00  1.0362E+003
 236.50  1.0312E+003
 237.00  1.0288E+003
 237.50  1.0298E+003
 238.00  1.0304E+003
 238.50  1.0354E+003
 239.00  1.0468E+003
 239.50  1.0619E+003
 240.00  1.0756E+003
 240.50  1.0826E+003
 241.00  1.0794E+003
 241.50  1.0655E+003
 242.00  1.0536E+003
 242.50  1.0437E+003
 243.00  1.0336E+003
 243.50  1.0211E+003
 244.00  1.0115E+003
 244.50  1.0122E+003
 245.00  1.0153E+003
 245.50  1.0211E+003
 246.00  1.0313E+003
 246.50  1.0375E+003
 247.00  1.0363E+003
 247.50  1.0318E+003
 248.00  1.0239E+003
 248.50  1.0133E+003
 249.00  1.0102E+003
 249.50  1.0175E+003
 250.00  1.0361E+003
 250.50  1.0525E+003
 251.00  1.0638E+003
 251.50  1.0717E+003
 252.00  1.0739E+003
 252.50  1.0560E+003
 253.00  1.0402E+003
 253.50  1.0344E+003
 254.00  1.0319E+003
 254.50  1.0342E+003
 255.00  1.0391E+003
 255.50  1.0425E+003
 256.00  1.0450E+003
 256.50  1.0489E+003
 257.00  1.0525E+003
 257.50  1.0511E+003
 258.00  1.0485E+003
 258.50  1.0471E+003
 259.00  1.0421E+003
 259.50  1.0374E+003
 260.00  1.0387E+003
 260.50  1.0361E+003
 261.00  1.0334E+003
 261.50  1.0296E+003
 262.00  1.0208E+003
 262.50  1.0117E+003
 263.00  1.0089E+003
 263.50  1.0086E+003
 264.00  1.0124E+003
 264.50  1.0218E+003
 265.00  1.0288E+003
 265.50  1.0307E+003
 266.00  1.0339E+003
 266.50  1.0385E+003
 267.00  1.0368E+003
 267.50  1.0345E+003
 268.00  1.0240E+003
 268.50  1.0255E+003
 269.00  1.0312E+003
 269.50  1.0367E+003
 270.00  1.0384E+003
 270.50  1.0473E+003
 271.00  1.0556E+003
 271.50  1.0497E+003
 272.00  1.0453E+003
 272.50  1.0487E+003
 273.00  1.0514E+003
 273.50  1.0475E+003
 274.00  1.0401E+003
 274.50  1.0314E+003
 275.00  1.0156E+003
 275.50  1.0003E+003
 276.00  9.8980E+002
 276.50  9.8572E+002
 277.00  9.9145E+002
 277.50  1.0095E+003
 278.00  1.0233E+003
 278.50  1.0361E+003
 279.00  1.0423E+003
 279.50  1.0405E+003
 280.00  1.0304E+003
 280.50  1.0185E+003
 281.00  1.0054E+003
 281.50  9.9575E+002
 282.00  9.9538E+002
 282.50  9.9479E+002
 283.00  9.9090E+002
 283.50  9.9154E+002
 284.00  9.9743E+002
 284.50  1.0026E+003
 285.00  9.9898E+002
 285.50  1.0017E+003
 286.00  1.0086E+003
 286.50  1.0113E+003
 287.00  1.0104E+003
 287.50  1.0152E+003
 288.00  1.0243E+003
 288.50  1.0379E+003
 289.00  1.0506E+003
 289.50  1.0539E+003
 290.00  1.0491E+003
 290.50  1.0443E+003
 291.00  1.0370E+003
 291.50  1.0275E+003
 292.00  1.0217E+003
 292.50  1.0278E+003
 293.00  1.0329E+003
 293.50  1.0268E+003
 294.00  1.0174E+003
 294.50  1.0075E+003
 295.00  9.9679E+002
 295.50  9.9165E+002
 296.00  9.9931E+002
 296.50  1.0067E+003
 297.00  1.0150E+003
 297.50  1.0197E+003
 298.00  1.0204E+003
 298.50  1.0198E+003
 299.00  1.0211E+003
 299.50  1.0233E+003
 300.00  1.0279E+003
 300.50  1.0318E+003
 301.00  1.0277E+003
 301.50  1.0167E+003
 302.00  1.0072E+003
 302.50  1.0013E+003
 303.00  9.9663E+002
 303.50  9.9339E+002
 304.00  9.9525E+002
 304.50  1.0033E+003
 305.00  1.0088E+003
 305.50  1.0079E+003
 306.00  1.0077E+003
 306.50  1.0068E+003
 307.00  1.0054E+003
 307.50  1.0075E+003
 308.00  1.0166E+003
 308.50  1.0248E+003
 309.00  1.0249E+003
 309.50  1.0275E+003
 310.00  1.0259E+003
 310.50  1.0225E+003
 311.00  1.0162E+003
 311.50  1.0232E+003
 312.00  1.0249E+003
 312.50  1.0283E+003
 313.00  1.0292E+003
 313.50  1.0288E+003
 314.00  1.0254E+003
 314.50  1.0255E+003
 315.00  1.0224E+003
 315.50  1.0219E+003
 316.00  1.0211E+003
 316.50  1.0199E+003
 317.00  1.0174E+003
 317.50  1.0115E+003
 318.00  1.0069E+003
 318.50  1.0121E+003
 319.00  1.0277E+003
 319.50  1.0408E+003
 320.00  1.0552E+003
 320.50  1.0711E+003
 321.00  1.0776E+003
 321.50  1.0708E+003
 322.00  1.0658E+003
 322.50  1.0620E+003
 323.00  1.0525E+003
 323.50  1.0476E+003
 324.00  1.0488E+003
 324.50  1.0492E+003
 325.00  1.0539E+003
 325.50  1.0584E+003
 326.00  1.0571E+003
 326.50  1.0528E+003
 327.00  1.0476E+003
 327.50  1.0405E+003
 328.00  1.0363E+003
 328.50  1.0369E+003
 329.00  1.0375E+003
 329.50  1.0424E+003
 330.00  1.0519E+003
 330.50  1.0588E+003
 331.00  1.0582E+003
 331.50  1.0539E+003
 332.00  1.0446E+003
 332.50  1.0305E+003
 333.00  1.0212E+003
 333.50  1.0206E+003
 334.00  1.0282E+003
 334.50  1.0380E+003
 335.00  1.0464E+003
 335.50  1.0446E+003
 336.00  1.0395E+003
 336.50  1.0341E+003
 337.00  1.0280E+003
 337.50  1.0275E+003
 338.00  1.0312E+003
 338.50  1.0286E+003
 339.00  1.0211E+003
 339.50  1.0122E+003
 340.00  9.9624E+002
 340.50  9.7766E+002
 341.00  9.7183E+002
 341.50  9.6944E+002
 342.00  9.7368E+002
 342.50  9.7924E+002
 343.00  9.9278E+002
 343.50  1.0069E+003
 344.00  1.0231E+003
 344.50  1.0350E+003
 345.00  1.0522E+003
 345.50  1.0645E+003
 346.00  1.0668E+003
 346.50  1.0614E+003
 347.00  1.0597E+003
 347.50  1.0571E+003
 348.00  1.0537E+003
 348.50  1.0496E+003
 349.00  1.0411E+003
 349.50  1.0277E+003
 350.00  1.0144E+003
 350.50  1.0078E+003
 351.00  1.0091E+003
 351.50  1.0163E+003
 352.00  1.0245E+003
 352.50  1.0376E+003
 353.00  1.0463E+003
 353.50  1.0453E+003
 354.00  1.0429E+003
 354.50  1.0403E+003
 355.00  1.0270E+003
 355.50  1.0109E+003
 356.00  1.0030E+003
 356.50  1.0008E+003
 357.00  1.0010E+003
 357.50  1.0028E+003
 358.00  1.0042E+003
 358.50  1.0034E+003
 359.00  9.9394E+002
 359.50  9.9236E+002
 360.00  9.8981E+002
 360.50  9.8551E+002
 361.00  9.8521E+002
 361.50  9.9885E+002
 362.00  1.0088E+003
 362.50  1.0164E+003
 363.00  1.0198E+003
 363.50  1.0228E+003
 364.00  1.0155E+003
 364.50  1.0076E+003
 365.00  1.0086E+003
 365.50  1.0192E+003
 366.00  1.0357E+003
 366.50  1.0510E+003
 367.00  1.0571E+003
 367.50  1.0523E+003
 368.00  1.0450E+003
 368.50  1.0347E+003
 369.00  1.0301E+003
 369.50  1.0324E+003
 370.00  1.0368E+003
 370.50  1.0346E+003
 371.00  1.0257E+003
 371.50  1.0168E+003
 372.00  1.0126E+003
 372.50  1.0143E+003
 373.00  1.0243E+003
 373.50  1.0368E+003
 374.00  1.0392E+003
 374.50  1.0355E+003
 375.00  1.0299E+003
 375.50  1.0236E+003
 376.00  1.0234E+003
 376.50  1.0305E+003
 377.00  1.0417E+003
 377.50  1.0526E+003
 378.00  1.0613E+003
 378.50  1.0604E+003
 379.00  1.0555E+003
 379.50  1.0498E+003
 380.00  1.0465E+003
 380.50  1.0441E+003
 381.00  1.0358E+003
 381.50  1.0367E+003
 382.00  1.0368E+003
 382.50  1.0284E+003
 383.00  1.0129E+003
 383.50  1.0080E+003
 384.00  1.0016E+003
 384.50  9.9474E+002
 385.00  9.9794E+002
 385.50  1.0089E+003
 386.00  1.0142E+003
 386.50  1.0150E+003
 387.00  1.0146E+003
 387.50  1.0087E+003
 388.00  9.9998E+002
 388.50  9.9113E+002
 389.00  9.8398E+002
 389.50  9.9096E+002
 390.00  9.9761E+002
 390.50  9.9319E+002
 391.00  1.0023E+003
 391.50  1.0168E+003
 392.00  1.0231E+003
 392.50  1.0315E+003
 393.00  1.0475E+003
 393.50  1.0581E+003
 394.00  1.0613E+003
 394.50  1.0527E+003
 395.00  1.0345E+003
 395.50  1.0326E+003
 396.00  1.0329E+003
 396.50  1.0305E+003
 397.00  1.0334E+003
 397.50  1.0478E+003
 398.00  1.0458E+003
 398.50  1.0338E+003
 399.00  1.0230E+003
 399.50  1.0216E+003
 400.00  1.0130E+003
 400.50  1.0088E+003
 401.00  1.0102E+003
 401.50  1.0147E+003
 402.00  1.0089E+003
 402.50  1.0190E+003
 403.00  1.0421E+003
 403.50  1.0711E+003
 404.00  1.0893E+003
 404.50  1.0980E+003
 405.00  1.0999E+003
 405.50  1.0888E+003
 406.00  1.0732E+003
 406.50  1.0653E+003
 407.00  1.0683E+003
 407.50  1.0686E+003
 408.00  1.0715E+003
 408.50  1.0745E+003
 409.00  1.0775E+003
 409.50  1.0839E+003
 410.00  1.0905E+003
 410.50  1.0935E+003
 411.00  1.0913E+003
 411.50  1.0835E+003
 412.00  1.0872E+003
 412.50  1.0847E+003
 413.00  1.0823E+003
 413.50  1.0849E+003
 414.00  1.0946E+003
 414.50  1.0981E+003
 415.00  1.1057E+003
 415.50  1.1124E+003
 416.00  1.1192E+003
 416.50  1.1288E+003
 417.00  1.1212E+003
 417.50  1.1173E+003
 418.00  1.1270E+003
 418.50  1.1487E+003
 419.00  1.1651E+003
 419.50  1.1913E+003
 420.00  1.2164E+003
 420.50  1.2182E+003
 421.00  1.2070E+003
 421.50  1.2037E+003
 422.00  1.2129E+003
 422.50  1.2330E+003
 423.00  1.2590E+003
 423.50  1.2867E+003
 424.00  1.3193E+003
 424.50  1.3424E+003
 425.00  1.3649E+003
 425.50  1.3830E+003
 426.00  1.4035E+003
 426.50  1.4167E+003
 427.00  1.4292E+003
 427.50  1.4350E+003
 428.00  1.4512E+003
 428.50  1.4643E+003
 429.00  1.4774E+003
 429.50  1.4964E+003
 430.00  1.5152E+003
 430.50  1.5254E+003
 431.00  1.5436E+003
 431.50  1.5727E+003
 432.00  1.6044E+003
 432.50  1.6360E+003
 433.00  1.6872E+003
 433.50  1.7964E+003
 434.00  2.1458E+003
 434.50  2.7584E+003
 435.00  3.2792E+003
 435.50  3.5446E+003
 436.00  3.5834E+003
 436.50  3.3055E+003
 437.00  2.7468E+003
 437.50  2.2810E+003
 438.00  2.0618E+003
 438.50  1.9917E+003
 439.00  1.9820E+003
 439.50  1.9950E+003
 440.00  2.0172E+003
 440.50  2.0311E+003
 441.00  2.0329E+003
 441.50  2.0253E+003
 442.00  2.0296E+003
 442.50  2.0354E+003
 443.00  2.0437E+003
 443.50  2.0599E+003
 444.00  2.0803E+003
 444.50  2.0990E+003
 445.00  2.1243E+003
 445.50  2.1487E+003
 446.00  2.1739E+003
 446.50  2.2071E+003
 447.00  2.2352E+003
 447.50  2.2494E+003
 448.00  2.2574E+003
 448.50  2.2635E+003
 449.00  2.2622E+003
 449.50  2.2610E+003
 450.00  2.2758E+003
 450.50  2.2924E+003
 451.00  2.2996E+003
 451.50  2.3133E+003
 452.00  2.3256E+003
 452.50  2.3176E+003
 453.00  2.3157E+003
 453.50  2.3190E+003
 454.00  2.3179E+003
 454.50  2.3040E+003
 455.00  2.2888E+003
 455.50  2.2646E+003
 456.00  2.2380E+003
 456.50  2.2088E+003
 457.00  2.1907E+003
 457.50  2.1935E+003
 458.00  2.2029E+003
 458.50  2.2011E+003
 459.00  2.1907E+003
 459.50  2.1812E+003
 460.00  2.1553E+003
 460.50  2.1381E+003
 461.00  2.1260E+003
 461.50  2.1268E+003
 462.00  2.1308E+003
 462.50  2.1339E+003
 463.00  2.1367E+003
 463.50  2.1389E+003
 464.00  2.1345E+003
 464.50  2.1350E+003
 465.00  2.1311E+003
 465.50  2.1237E+003
 466.00  2.1183E+003
 466.50  2.1135E+003
 467.00  2.1100E+003
 467.50  2.1080E+003
 468.00  2.1031E+003
 468.50  2.0957E+003
 469.00  2.0805E+003
 469.50  2.0587E+003
 470.00  2.0382E+003
 470.50  2.0200E+003
 471.00  2.0072E+003
 471.50  1.9974E+003
 472.00  1.9913E+003
 472.50  1.9948E+003
 473.00  2.0018E+003
 473.50  2.0010E+003
 474.00  2.0058E+003
 474.50  2.0163E+003
 475.00  2.0206E+003
 475.50  2.0220E+003
 476.00  2.0178E+003
 476.50  2.0130E+003
 477.00  2.0023E+003
 477.50  1.9839E+003
 478.00  1.9568E+003
 478.50  1.9473E+003
 479.00  1.9289E+003
 479.50  1.9145E+003
 480.00  1.9299E+003
 480.50  1.9594E+003
 481.00  1.9929E+003
 481.50  2.0350E+003
 482.00  2.0918E+003
 482.50  2.1569E+003
 483.00  2.2458E+003
 483.50  2.3524E+003
 484.00  2.4738E+003
 484.50  2.6048E+003
 485.00  2.7443E+003
 485.50  2.8814E+003
 486.00  3.0017E+003
 486.50  3.0786E+003
 487.00  3.1042E+003
 487.50  3.0965E+003
 488.00  3.0642E+003
 488.50  3.0258E+003
 489.00  2.9918E+003
 489.50  2.9555E+003
 490.00  2.9027E+003
 490.50  2.8384E+003
 491.00  2.7681E+003
 491.50  2.7060E+003
 492.00  2.6505E+003
 492.50  2.6034E+003
 493.00  2.5493E+003
 493.50  2.4752E+003
 494.00  2.3883E+003
 494.50  2.3057E+003
 495.00  2.2212E+003
 495.50  2.1655E+003
 496.00  2.1255E+003
 496.50  2.0901E+003
 497.00  2.0460E+003
 497.50  2.0019E+003
 498.00  1.9373E+003
 498.50  1.8644E+003
 499.00  1.7922E+003
 499.50  1.7162E+003
 500.00  1.6340E+003
 500.50  1.5611E+003
 501.00  1.5044E+003
 501.50  1.4650E+003
 502.00  1.4363E+003
 502.50  1.4119E+003
 503.00  1.3964E+003
 503.50  1.3793E+003
 504.00  1.3666E+003
 504.50  1.3522E+003
 505.00  1.3342E+003
 505.50  1.3186E+003
 506.00  1.3131E+003
 506.50  1.2895E+003
 507.00  1.2711E+003
 507.50  1.2680E+003
 508.00  1.2638E+003
 508.50  1.2558E+003
 509.00  1.2612E+003
 509.50  1.2641E+003
 510.00  1.2621E+003
 510.50  1.2583E+003
 511.00  1.2515E+003
 511.50  1.2409E+003
 512.00  1.2287E+003
 512.50  1.2131E+003
 513.00  1.1933E+003
 513.50  1.1751E+003
 514.00  1.1685E+003
 514.50  1.1807E+003
 515.00  1.1941E+003
 515.50  1.2025E+003
 516.00  1.2116E+003
 516.50  1.2149E+003
 517.00  1.1929E+003
 517.50  1.1684E+003
 518.00  1.1640E+003
 518.50  1.1461E+003
 519.00  1.1264E+003
 519.50  1.1225E+003
 520.00  1.1180E+003
 520.50  1.1055E+003
 521.00  1.1023E+003
 521.50  1.1046E+003
 522.00  1.1071E+003
 522.50  1.1072E+003
 523.00  1.1001E+003
 523.50  1.0929E+003
 524.00  1.0906E+003
 524.50  1.0906E+003
 525.00  1.0965E+003
 525.50  1.1001E+003
 526.00  1.0941E+003
 526.50  1.0756E+003
 527.00  1.0596E+003
 527.50  1.0539E+003
 528.00  1.0572E+003
 528.50  1.0593E+003
 529.00  1.0719E+003
 529.50  1.0823E+003
 530.00  1.0896E+003
 530.50  1.1032E+003
 531.00  1.1163E+003
 531.50  1.1250E+003
 532.00  1.1338E+003
 532.50  1.1356E+003
 533.00  1.1272E+003
 533.50  1.1165E+003
 534.00  1.0964E+003
 534.50  1.0795E+003
 535.00  1.0776E+003
 535.50  1.0897E+003
 536.00  1.1130E+003
 536.50  1.1489E+003
 537.00  1.1872E+003
 537.50  1.2211E+003
 538.00  1.2618E+003
 538.50  1.3044E+003
 539.00  1.3574E+003
 539.50  1.4391E+003
 540.00  1.5675E+003
 540.50  1.7508E+003
 541.00  1.9673E+003
 541.50  2.1781E+003
 542.00  2.3429E+003
 542.50  2.4427E+003
 543.00  2.4358E+003
 543.50  2.3739E+003
 544.00  2.3423E+003
 544.50  2.3855E+003
 545.00  2.3681E+003
 545.50  2.2874E+003
 546.00  2.1499E+003
 546.50  1.9210E+003
 547.00  1.6519E+003
 547.50  1.4705E+003
 548.00  1.3804E+003
 548.50  1.3347E+003
 549.00  1.3108E+003
 549.50  1.2923E+003
 550.00  1.2689E+003
 550.50  1.2407E+003
 551.00  1.2156E+003
 551.50  1.2064E+003
 552.00  1.1801E+003
 552.50  1.1432E+003
 553.00  1.1100E+003
 553.50  1.0833E+003
 554.00  1.0593E+003
 554.50  1.0550E+003
 555.00  1.0620E+003
 555.50  1.0711E+003
 556.00  1.0753E+003
 556.50  1.0752E+003
 557.00  1.0728E+003
 557.50  1.0714E+003
 558.00  1.0687E+003
 558.50  1.0620E+003
 559.00  1.0583E+003
 559.50  1.0636E+003
 560.00  1.0724E+003
 560.50  1.0758E+003
 561.00  1.0752E+003
 561.50  1.0724E+003
 562.00  1.0655E+003
 562.50  1.0530E+003
 563.00  1.0492E+003
 563.50  1.0478E+003
 564.00  1.0410E+003
 564.50  1.0434E+003
 565.00  1.0478E+003
 565.50  1.0546E+003
 566.00  1.0674E+003
 566.50  1.0656E+003
 567.00  1.0608E+003
 567.50  1.0658E+003
 568.00  1.0655E+003
 568.50  1.0711E+003
 569.00  1.0882E+003
 569.50  1.0949E+003
 570.00  1.0915E+003
 570.50  1.0862E+003
 571.00  1.0747E+003
 571.50  1.0659E+003
 572.00  1.0683E+003
 572.50  1.0794E+003
 573.00  1.0854E+003
 573.50  1.0846E+003
 574.00  1.0801E+003
 574.50  1.0816E+003
 575.00  1.1087E+003
 575.50  1.1527E+003
 576.00  1.1890E+003
 576.50  1.2217E+003
 577.00  1.2731E+003
 577.50  1.3296E+003
 578.00  1.3896E+003
 578.50  1.4859E+003
 579.00  1.5678E+003
 579.50  1.5940E+003
 580.00  1.6024E+003
 580.50  1.6234E+003
 581.00  1.6686E+003
 581.50  1.7645E+003
 582.00  1.8973E+003
 582.50  2.0474E+003
 583.00  2.1756E+003
 583.50  2.2392E+003
 584.00  2.2448E+003
 584.50  2.2153E+003
 585.00  2.1976E+003
 585.50  2.2686E+003
 586.00  2.4208E+003
 586.50  2.5492E+003
 587.00  2.6276E+003
 587.50  2.6036E+003
 588.00  2.4828E+003
 588.50  2.3308E+003
 589.00  2.1962E+003
 589.50  2.1042E+003
 590.00  2.0430E+003
 590.50  2.0006E+003
 591.00  2.0103E+003
 591.50  2.0564E+003
 592.00  2.0861E+003
 592.50  2.0728E+003
 593.00  1.9987E+003
 593.50  1.8639E+003
 594.00  1.7109E+003
 594.50  1.5918E+003
 595.00  1.5194E+003
 595.50  1.4862E+003
 596.00  1.4811E+003
 596.50  1.4848E+003
 597.00  1.4994E+003
 597.50  1.5415E+003
 598.00  1.5958E+003
 598.50  1.6431E+003
 599.00  1.6552E+003
 599.50  1.6249E+003
 600.00  1.5686E+003
 600.50  1.4993E+003
 601.00  1.4349E+003
 601.50  1.3923E+003
 602.00  1.3664E+003
 602.50  1.3434E+003
 603.00  1.3289E+003
 603.50  1.3316E+003
 604.00  1.3423E+003
 604.50  1.3694E+003
 605.00  1.4131E+003
 605.50  1.4596E+003
 606.00  1.5129E+003
 606.50  1.5767E+003
 607.00  1.6580E+003
 607.50  1.7910E+003
 608.00  2.0511E+003
 608.50  2.5895E+003
 609.00  3.7699E+003
 609.50  5.7121E+003
 610.00  7.6230E+003
 610.50  8.8133E+003
 611.00  9.0717E+003
 611.50  8.2283E+003
 612.00  6.6971E+003
 612.50  5.3657E+003
 613.00  4.5824E+003
 613.50  4.1482E+003
 614.00  3.7986E+003
 614.50  3.4455E+003
 615.00  3.1022E+003
 615.50  2.7975E+003
 616.00  2.5613E+003
 616.50  2.4058E+003
 617.00  2.3286E+003
 617.50  2.3071E+003
 618.00  2.3217E+003
 618.50  2.3754E+003
 619.00  2.4530E+003
 619.50  2.5063E+003
 620.00  2.5139E+003
 620.50  2.4767E+003
 621.00  2.4064E+003
 621.50  2.3173E+003
 622.00  2.2276E+003
 622.50  2.1533E+003
 623.00  2.0880E+003
 623.50  2.0256E+003
 624.00  1.9669E+003
 624.50  1.9023E+003
 625.00  1.8326E+003
 625.50  1.7721E+003
 626.00  1.7132E+003
 626.50  1.6756E+003
 627.00  1.6612E+003
 627.50  1.6470E+003
 628.00  1.6623E+003
 628.50  1.7142E+003
 629.00  1.8068E+003
 629.50  1.9154E+003
 630.00  1.9778E+003
 630.50  1.9542E+003
 631.00  1.8374E+003
 631.50  1.6555E+003
 632.00  1.4660E+003
 632.50  1.3389E+003
 633.00  1.2712E+003
 633.50  1.2349E+003
 634.00  1.2042E+003
 634.50  1.1888E+003
 635.00  1.1816E+003
 635.50  1.1735E+003
 636.00  1.1738E+003
 636.50  1.1714E+003
 637.00  1.1700E+003
 637.50  1.1609E+003
 638.00  1.1600E+003
 638.50  1.1648E+003
 639.00  1.1647E+003
 639.50  1.1551E+003
 640.00  1.1482E+003
 640.50  1.1440E+003
 641.00  1.1306E+003
 641.50  1.1373E+003
 642.00  1.1458E+003
 642.50  1.1548E+003
 643.00  1.1688E+003
 643.50  1.1862E+003
 644.00  1.1990E+003
 644.50  1.2095E+003
 645.00  1.2053E+003
 645.50  1.2007E+003
 646.00  1.1884E+003
 646.50  1.1747E+003
 647.00  1.1746E+003
 647.50  1.1751E+003
 648.00  1.1873E+003
 648.50  1.2283E+003
 649.00  1.2654E+003
 649.50  1.2980E+003
 650.00  1.3275E+003
 650.50  1.3135E+003
 651.00  1.2835E+003
 651.50  1.2516E+003
 652.00  1.2203E+003
 652.50  1.1915E+003
 653.00  1.1699E+003
 653.50  1.1518E+003
 654.00  1.1398E+003
 654.50  1.1277E+003
 655.00  1.1267E+003
 655.50  1.1224E+003
 656.00  1.1212E+003
 656.50  1.1225E+003
 657.00  1.1209E+003
 657.50  1.1187E+003
 658.00  1.1201E+003
 658.50  1.1167E+003
 659.00  1.1182E+003
 659.50  1.1337E+003
 660.00  1.1557E+003
 660.50  1.1897E+003
 661.00  1.2152E+003
 661.50  1.2261E+003
 662.00  1.2286E+003
 662.50  1.2205E+003
 663.00  1.1992E+003
 663.50  1.1901E+003
 664.00  1.1851E+003
 664.50  1.1786E+003
 665.00  1.1759E+003
 665.50  1.1824E+003
 666.00  1.1896E+003
 666.50  1.1994E+003
 667.00  1.2082E+003
 667.50  1.2103E+003
 668.00  1.1967E+003
 668.50  1.1736E+003
 669.00  1.1480E+003
 669.50  1.1242E+003
 670.00  1.1081E+003
 670.50  1.1012E+003
 671.00  1.0956E+003
 671.50  1.0934E+003
 672.00  1.0934E+003
 672.50  1.0965E+003
 673.00  1.0990E+003
 673.50  1.1045E+003
 674.00  1.1170E+003
 674.50  1.1293E+003
 675.00  1.1412E+003
 675.50  1.1493E+003
 676.00  1.1437E+003
 676.50  1.1293E+003
 677.00  1.1205E+003
 677.50  1.1150E+003
 678.00  1.1114E+003
 678.50  1.1136E+003
 679.00  1.1184E+003
 679.50  1.1061E+003
 680.00  1.0910E+003
 680.50  1.0842E+003
 681.00  1.0741E+003
 681.50  1.0767E+003
 682.00  1.0864E+003
 682.50  1.0897E+003
 683.00  1.0889E+003
 683.50  1.0897E+003
 684.00  1.0894E+003
 684.50  1.1106E+003
 685.00  1.1462E+003
 685.50  1.1668E+003
 686.00  1.1825E+003
 686.50  1.1921E+003
 687.00  1.1861E+003
 687.50  1.1767E+003
 688.00  1.1682E+003
 688.50  1.1448E+003
 689.00  1.1177E+003
 689.50  1.0956E+003
 690.00  1.0749E+003
 690.50  1.0656E+003
 691.00  1.0759E+003
 691.50  1.0837E+003
 692.00  1.0958E+003
 692.50  1.1104E+003
 693.00  1.1113E+003
 693.50  1.0960E+003
 694.00  1.0746E+003
 694.50  1.0448E+003
 695.00  1.0252E+003
 695.50  1.0211E+003
 696.00  1.0223E+003
 696.50  1.0282E+003
 697.00  1.0364E+003
 697.50  1.0472E+003
 698.00  1.0521E+003
 698.50  1.0583E+003
 699.00  1.0715E+003
 699.50  1.0706E+003
 700.00  1.0629E+003
 700.50  1.0552E+003
 701.00  1.0538E+003
 701.50  1.0504E+003
 702.00  1.0529E+003
 702.50  1.0622E+003
 703.00  1.0654E+003
 703.50  1.0631E+003
 704.00  1.0832E+003
 704.50  1.1184E+003
 705.00  1.1783E+003
 705.50  1.2531E+003
 706.00  1.3091E+003
 706.50  1.3305E+003
 707.00  1.3358E+003
 707.50  1.3411E+003
 708.00  1.3550E+003
 708.50  1.3569E+003
 709.00  1.3253E+003
 709.50  1.2690E+003
 710.00  1.2092E+003
 710.50  1.1929E+003
 711.00  1.2269E+003
 711.50  1.2682E+003
 712.00  1.2854E+003
 712.50  1.2594E+003
 713.00  1.1961E+003
 713.50  1.1372E+003
 714.00  1.0957E+003
 714.50  1.0635E+003
 715.00  1.0463E+003
 715.50  1.0352E+003
 716.00  1.0198E+003
 716.50  1.0105E+003
 717.00  1.0117E+003
 717.50  1.0135E+003
 718.00  1.0168E+003
 718.50  1.0279E+003
 719.00  1.0371E+003
 719.50  1.0499E+003
 720.00  1.0630E+003
 720.50  1.0671E+003
 721.00  1.0663E+003
 721.50  1.0485E+003
 722.00  1.0262E+003
 722.50  1.0059E+003
 723.00  9.9442E+002
 723.50  1.0050E+003
 724.00  1.0226E+003
 724.50  1.0388E+003
 725.00  1.0521E+003
 725.50  1.0477E+003
 726.00  1.0417E+003
 726.50  1.0337E+003
 727.00  1.0292E+003
 727.50  1.0335E+003
 728.00  1.0440E+003
 728.50  1.0516E+003
 729.00  1.0552E+003
 729.50  1.0527E+003
 730.00  1.0448E+003
 730.50  1.0338E+003
 731.00  1.0236E+003
 731.50  1.0121E+003
 732.00  1.0121E+003
 732.50  1.0200E+003
 733.00  1.0237E+003
 733.50  1.0289E+003
 734.00  1.0242E+003
 734.50  1.0056E+003
 735.00  1.0005E+003
 735.50  1.0026E+003
 736.00  1.0188E+003
 736.50  1.0356E+003
 737.00  1.0490E+003
 737.50  1.0471E+003
 738.00  1.0476E+003
 738.50  1.0562E+003
 739.00  1.0574E+003
 739.50  1.0663E+003
 740.00  1.0633E+003
 740.50  1.0472E+003
 741.00  1.0387E+003
 741.50  1.0232E+003
 742.00  1.0165E+003
 742.50  1.0184E+003
 743.00  1.0243E+003
 743.50  1.0436E+003
 744.00  1.0510E+003
 744.50  1.0530E+003
 745.00  1.0476E+003
 745.50  1.0427E+003
 746.00  1.0464E+003
 746.50  1.0445E+003
 747.00  1.0491E+003
 747.50  1.0515E+003
 748.00  1.0472E+003
 748.50  1.0505E+003
 749.00  1.0433E+003
 749.50  1.0278E+003
 750.00  1.0314E+003
 750.50  1.0330E+003
 751.00  1.0381E+003
 751.50  1.0423E+003
 752.00  1.0282E+003
 752.50  1.0143E+003
 753.00  1.0086E+003
 753.50  1.0125E+003
 754.00  1.0260E+003
 754.50  1.0353E+003
 755.00  1.0380E+003
 755.50  1.0419E+003
 756.00  1.0394E+003
 756.50  1.0313E+003
 757.00  1.0265E+003
 757.50  1.0316E+003
 758.00  1.0373E+003
 758.50  1.0507E+003
 759.00  1.0617E+003
 759.50  1.0720E+003
 760.00  1.0771E+003
 760.50  1.0673E+003
 761.00  1.0550E+003
 761.50  1.0377E+003
 762.00  1.0251E+003
 762.50  1.0191E+003
 763.00  1.0164E+003
 763.50  1.0147E+003
 764.00  1.0087E+003
 764.50  1.0010E+003
 765.00  1.0024E+003
 765.50  1.0053E+003
 766.00  1.0137E+003
 766.50  1.0272E+003
 767.00  1.0425E+003
 767.50  1.0530E+003
 768.00  1.0522E+003
 768.50  1.0427E+003
 769.00  1.0327E+003
 769.50  1.0261E+003
 770.00  1.0248E+003
 770.50  1.0251E+003
 771.00  1.0250E+003
 771.50  1.0233E+003
 772.00  1.0204E+003
 772.50  1.0258E+003
 773.00  1.0313E+003
 773.50  1.0326E+003
 774.00  1.0333E+003
 774.50  1.0312E+003
 775.00  1.0281E+003
 775.50  1.0362E+003
 776.00  1.0513E+003
 776.50  1.0657E+003
 777.00  1.0685E+003
 777.50  1.0658E+003
 778.00  1.0545E+003
 778.50  1.0346E+003
 779.00  1.0264E+003
 779.50  1.0215E+003
 780.00  1.0188E+003
 780.50  1.0190E+003
 781.00  1.0120E+003
 781.50  1.0072E+003
 782.00  9.9873E+002
 782.50  9.8968E+002
 783.00  9.9666E+002
 783.50  1.0014E+003
 784.00  1.0048E+003
 784.50  1.0181E+003
 785.00  1.0317E+003
 785.50  1.0359E+003
 786.00  1.0370E+003
 786.50  1.0308E+003
 787.00  1.0178E+003
 787.50  1.0097E+003
 788.00  1.0091E+003
 788.50  1.0099E+003
 789.00  1.0113E+003
 789.50  1.0251E+003
 790.00  1.0346E+003
 790.50  1.0382E+003
 791.00  1.0415E+003
 791.50  1.0364E+003
 792.00  1.0296E+003
 792.50  1.0200E+003
 793.00  1.0218E+003
 793.50  1.0243E+003
 794.00  1.0265E+003
 794.50  1.0364E+003
 795.00  1.0431E+003
 795.50  1.0356E+003
 796.00  1.0288E+003
 796.50  1.0191E+003
 797.00  1.0103E+003
 797.50  1.0099E+003
 798.00  1.0135E+003
 798.50  1.0203E+003
 799.00  1.0230E+003
 799.50  1.0364E+003
 800.00  1.0483E+003
 800.50  1.0494E+003
 801.00  1.0443E+003
 801.50  1.0450E+003
 802.00  1.0423E+003
 802.50  1.0393E+003
 803.00  1.0412E+003
 803.50  1.0317E+003
 804.00  1.0215E+003
 804.50  1.0199E+003
 805.00  1.0124E+003
 805.50  1.0040E+003
 806.00  1.0035E+003
 806.50  1.0137E+003
 807.00  1.0260E+003
 807.50  1.0416E+003
 808.00  1.0403E+003
 808.50  1.0199E+003
 809.00  1.0125E+003
 809.50  9.9944E+002
 810.00  1.0056E+003
 810.50  1.0321E+003
 811.00  1.0453E+003
 811.50  1.0537E+003
 812.00  1.0504E+003
 812.50  1.0450E+003
 813.00  1.0474E+003
 813.50  1.0486E+003
 814.00  1.0523E+003
 814.50  1.0441E+003
 815.00  1.0258E+003
 815.50  1.0156E+003
 816.00  1.0072E+003
 816.50  1.0001E+003
 817.00  9.9366E+002
 817.50  9.9177E+002
 818.00  9.9586E+002
 818.50  1.0059E+003
 819.00  1.0279E+003
 819.50  1.0375E+003
 820.00  1.0353E+003
 820.50  1.0336E+003
 821.00  1.0281E+003
 821.50  1.0309E+003
 822.00  1.0395E+003
 822.50  1.0360E+003
 823.00  1.0267E+003
 823.50  1.0267E+003
 824.00  1.0324E+003
 824.50  1.0433E+003
 825.00  1.0660E+003
 825.50  1.0809E+003
 826.00  1.0766E+003
 826.50  1.0666E+003
 827.00  1.0548E+003
 827.50  1.0443E+003
 828.00  1.0290E+003
 828.50  1.0185E+003
 829.00  1.0132E+003
 829.50  9.9733E+002
 830.00  1.0025E+003
 830.50  1.0112E+003
 831.00  1.0144E+003
 831.50  1.0264E+003
 832.00  1.0289E+003
 832.50  1.0166E+003
 833.00  1.0016E+003
 833.50  9.9668E+002
 834.00  1.0032E+003
 834.50  1.0194E+003
 835.00  1.0322E+003
 835.50  1.0381E+003
 836.00  1.0366E+003
 836.50  1.0321E+003
 837.00  1.0269E+003
 837.50  1.0259E+003
 838.00  1.0257E+003
 838.50  1.0240E+003
 839.00  1.0281E+003
 839.50  1.0375E+003
 840.00  1.0421E+003
 840.50  1.0561E+003
 841.00  1.0707E+003
 841.50  1.0650E+003
 842.00  1.0651E+003
 842.50  1.0617E+003
 843.00  1.0610E+003
 843.50  1.0635E+003
 844.00  1.0740E+003
 844.50  1.0730E+003
 845.00  1.0626E+003
 845.50  1.0499E+003
 846.00  1.0253E+003
 846.50  1.0128E+003
 847.00  1.0091E+003
 847.50  1.0070E+003
 848.00  1.0179E+003
 848.50  1.0323E+003
 849.00  1.0398E+003
 849.50  1.0453E+003
 850.00  1.0417E+003
 850.50  1.0414E+003
 851.00  1.0397E+003
 851.50  1.0389E+003
 852.00  1.0380E+003
 852.50  1.0297E+003
 853.00  1.0248E+003
 853.50  1.0348E+003
 854.00  1.0412E+003
 854.50  1.0448E+003
 855.00  1.0411E+003
 855.50  1.0324E+003
 856.00  1.0397E+003
 856.50  1.0523E+003
 857.00  1.0589E+003
 857.50  1.0553E+003
 858.00  1.0463E+003
 858.50  1.0380E+003
 859.00  1.0361E+003
 859.50  1.0436E+003
 860.00  1.0442E+003
 860.50  1.0462E+003
 861.00  1.0480E+003
 861.50  1.0479E+003
 862.00  1.0424E+003
 862.50  1.0329E+003
 863.00  1.0329E+003
 863.50  1.0409E+003
 864.00  1.0627E+003
 864.50  1.0797E+003
 865.00  1.0864E+003
 865.50  1.0767E+003
 866.00  1.0577E+003
 866.50  1.0584E+003
 867.00  1.0593E+003
 867.50  1.0557E+003
 868.00  1.0468E+003
 868.50  1.0202E+003
 869.00  1.0032E+003
 869.50  1.0048E+003
 870.00  1.0076E+003
 870.50  1.0157E+003
 871.00  1.0135E+003
 871.50  9.9991E+002
 872.00  1.0049E+003
 872.50  1.0136E+003
 873.00  1.0310E+003
 873.50  1.0437E+003
 874.00  1.0394E+003
 874.50  1.0246E+003
 875.00  1.0105E+003
 875.50  1.0057E+003
 876.00  1.0147E+003
 876.50  1.0302E+003
 877.00  1.0306E+003
 877.50  1.0297E+003
 878.00  1.0270E+003
 878.50  1.0244E+003
 879.00  1.0270E+003
 879.50  1.0243E+003
 880.00  1.0145E+003
 880.50  1.0134E+003
 881.00  1.0097E+003
 881.50  1.0176E+003
 882.00  1.0219E+003
 882.50  1.0168E+003
 883.00  1.0228E+003
 883.50  1.0283E+003
 884.00  1.0325E+003
 884.50  1.0339E+003
 885.00  1.0281E+003
 885.50  1.0154E+003
 886.00  1.0167E+003
 886.50  1.0364E+003
 887.00  1.0539E+003
 887.50  1.0587E+003
 888.00  1.0590E+003
 888.50  1.0485E+003
 889.00  1.0423E+003
 889.50  1.0360E+003
 890.00  1.0196E+003
 890.50  1.0083E+003
 891.00  1.0031E+003
 891.50  1.0100E+003
 892.00  1.0183E+003
 892.50  1.0235E+003
 893.00  1.0176E+003
 893.50  1.0148E+003
 894.00  1.0174E+003
 894.50  1.0191E+003
 895.00  1.0214E+003
 895.50  1.0245E+003
 896.00  1.0507E+003
 896.50  1.0763E+003
 897.00  1.0857E+003
 897.50  1.0841E+003
 898.00  1.0551E+003
 898.50  1.0328E+003
 899.00  1.0282E+003
 899.50  1.0222E+003
 900.00  1.0225E+003
 900.50  1.0196E+003
 901.00  1.0116E+003
 901.50  1.0033E+003
 902.00  9.9475E+002
 902.50  1.0042E+003
 903.00  1.0096E+003
 903.50  1.0111E+003
 904.00  1.0225E+003
 904.50  1.0195E+003
 905.00  1.0195E+003
 905.50  1.0244E+003
 906.00  1.0167E+003
 906.50  1.0174E+003
 907.00  1.0075E+003
 907.50  1.0086E+003
 908.00  1.0181E+003
 908.50  1.0350E+003
 909.00  1.0529E+003
 909.50  1.0543E+003
 910.00  1.0422E+003
 910.50  1.0222E+003
 911.00  1.0182E+003
 911.50  1.0201E+003
 912.00  1.0363E+003
 912.50  1.0581E+003
 913.00  1.0659E+003
 913.50  1.0635E+003
 914.00  1.0490E+003
 914.50  1.0311E+003
 915.00  1.0267E+003
 915.50  1.0273E+003
 916.00  1.0391E+003
 916.50  1.0324E+003
 917.00  1.0185E+003
 917.50  1.0146E+003
 918.00  1.0169E+003
 918.50  1.0349E+003
 919.00  1.0422E+003
 919.50  1.0333E+003
 920.00  1.0208E+003
 920.50  1.0125E+003
 921.00  1.0149E+003
 921.50  1.0193E+003
 922.00  1.0156E+003
 922.50  1.0125E+003
 923.00  1.0153E+003
 923.50  1.0239E+003
 924.00  1.0426E+003
 924.50  1.0519E+003
 925.00  1.0454E+003
 925.50  1.0294E+003
 926.00  1.0109E+003
 926.50  1.0067E+003
 927.00  1.0146E+003
 927.50  1.0366E+003
 928.00  1.0533E+003
 928.50  1.0539E+003
 929.00  1.0468E+003
 929.50  1.0329E+003
 930.00  1.0124E+003
 930.50  9.9660E+002
 931.00  9.9419E+002
 931.50  1.0071E+003
 932.00  1.0235E+003
 932.50  1.0414E+003
 933.00  1.0391E+003
 933.50  1.0244E+003
 934.00  1.0215E+003
 934.50  1.0202E+003
 935.00  1.0197E+003
 935.50  1.0226E+003
 936.00  1.0127E+003
 936.50  1.0078E+003
 937.00  1.0167E+003
 937.50  1.0352E+003
 938.00  1.0469E+003
 938.50  1.0443E+003
 939.00  1.0230E+003
 939.50  1.0087E+003
 940.00  1.0096E+003
 940.50  1.0126E+003
 941.00  1.0244E+003
 941.50  1.0271E+003
 942.00  1.0332E+003
 942.50  1.0357E+003
 943.00  1.0355E+003
 943.50  1.0330E+003
 944.00  1.0247E+003
 944.50  1.0142E+003
 945.00  1.0013E+003
 945.50  1.0014E+003
 946.00  1.0197E+003
 946.50  1.0349E+003
 947.00  1.0410E+003
 947.50  1.0361E+003
 948.00  1.0304E+003
 948.50  1.0230E+003
 949.00  1.0248E+003
 949.50  1.0110E+003
 950.00  9.9550E+002
 950.50  9.9038E+002
 951.00  9.8425E+002
 951.50  1.0008E+003
 952.00  1.0161E+003
 952.50  1.0158E+003
 953.00  1.0195E+003
 953.50  1.0207E+003
 954.00  1.0214E+003
 954.50  1.0238E+003
 955.00  1.0222E+003
 955.50  1.0164E+003
 956.00  1.0192E+003
 956.50  1.0122E+003
 957.00  1.0075E+003
 957.50  1.0024E+003
 958.00  1.0026E+003
 958.50  1.0112E+003
 959.00  1.0258E+003
 959.50  1.0369E+003
 960.00  1.0403E+003
 960.50  1.0366E+003
 961.00  1.0319E+003
 961.50  1.0306E+003
 962.00  1.0360E+003
 962.50  1.0394E+003
 963.00  1.0431E+003
 963.50  1.0474E+003
 964.00  1.0497E+003
 964.50  1.0472E+003
 965.00  1.0389E+003
 965.50  1.0363E+003
 966.00  1.0303E+003
 966.50  1.0388E+003
 967.00  1.0462E+003
 967.50  1.0386E+003
 968.00  1.0323E+003
 968.50  1.0280E+003
 969.00  1.0285E+003
 969.50  1.0269E+003
 970.00  1.0196E+003
 970.50  1.0218E+003
 971.00  1.0330E+003
 971.50  1.0494E+003
 972.00  1.0521E+003
 972.50  1.0389E+003
 973.00  1.0326E+003
 973.50  1.0213E+003
 974.00  1.0145E+003
 974.50  1.0115E+003
 975.00  1.0091E+003
 975.50  1.0142E+003
 976.00  1.0141E+003
 976.50  1.0128E+003
 977.00  1.0104E+003
 977.50  1.0131E+003
 978.00  1.0055E+003
 978.50  1.0030E+003
 979.00  9.9007E+002
 979.50  9.9180E+002
 980.00  1.0061E+003
 980.50  1.0195E+003
 981.00  1.0221E+003
 981.50  1.0211E+003
 982.00  1.0238E+003
 982.50  1.0217E+003
 983.00  1.0237E+003
 983.50  1.0274E+003
 984.00  1.0180E+003
 984.50  1.0097E+003
 985.00  1.0117E+003
 985.50  1.0075E+003
 986.00  1.0046E+003
 986.50  1.0094E+003
 987.00  1.0012E+003
 987.50  1.0051E+003
 988.00  1.0133E+003
 988.50  1.0217E+003
 989.00  1.0217E+003
 989.50  1.0176E+003
 990.00  1.0053E+003
 990.50  1.0005E+003
 991.00  1.0207E+003
 991.50  1.0502E+003
 992.00  1.0677E+003
 992.50  1.0714E+003
 993.00  1.0499E+003
 993.50  1.0470E+003
 994.00  1.0540E+003
 994.50  1.0508E+003
 995.00  1.0300E+003
 995.50  9.9920E+002
 996.00  9.8437E+002
 996.50  9.9583E+002
 997.00  1.0074E+003
 997.50  1.0023E+003
 998.00  9.9923E+002
 998.50  9.9463E+002
 999.00  1.0040E+003
 999.50  1.0168E+003
1000.00  1.0220E+003
1000.50  1.0272E+003
1001.00  1.0190E+003
1001.50  1.0092E+003
1002.00  9.9962E+002
1002.50  9.9633E+002
1003.00  9.9605E+002
1003.50  9.8408E+002
1004.00  9.7821E+002
1004.50  9.7562E+002
1005.00  9.8053E+002
1005.50  9.9541E+002
1006.00  1.0034E+003
1006.50  9.9528E+002
1007.00  9.8572E+002
1007.50  9.7793E+002
1008.00  9.8203E+002
1008.50  9.9225E+002
1009.00  9.9444E+002
1009.50  9.9331E+002
1010.00  9.9808E+002
1010.50  1.0027E+003
1011.00  1.0124E+003
1011.50  1.0069E+003
1012.00  1.0220E+003
1012.50  1.0664E+003
1013.00  1.1468E+003
1013.50  1.2083E+003
1014.00  1.2100E+003
1014.50  1.1427E+003
1015.00  1.0505E+003
1015.50  1.0167E+003
1016.00  1.0103E+003
1016.50  1.0238E+003
1017.00  1.0276E+003
1017.50  1.0298E+003
1018.00  1.0233E+003
1018.50  1.0235E+003
1019.00  1.0237E+003
1019.50  1.0194E+003
1020.00  1.0157E+003
1020.50  1.0160E+003
1021.00  1.0272E+003
1021.50  1.0396E+003
1022.00  1.0598E+003
1022.50  1.0492E+003
1023.00  1.0447E+003
1023.50  1.0342E+003
1024.00  1.0202E+003
1024.50  1.0310E+003
1025.00  1.0286E+003
1025.50  1.0296E+003
1026.00  1.0276E+003
1026.50  1.0308E+003
1027.00  1.0361E+003
1027.50  1.0379E+003
1028.00  1.0220E+003
1028.50  1.0034E+003
1029.00  1.0099E+003
1029.50  1.0148E+003
1030.00  1.0195E+003
1030.50  1.0064E+003
1031.00  9.9547E+002
1031.50  9.8935E+002
1032.00  9.9117E+002
1032.50  1.0007E+003
1033.00  1.0093E+003
1033.50  1.0190E+003
1034.00  1.0261E+003
1034.50  1.0219E+003
1035.00  1.0239E+003
1035.50  1.0253E+003
1036.00  1.0177E+003
1036.50  1.0135E+003
1037.00  9.9362E+002
1037.50  9.8481E+002
1038.00  9.8755E+002
1038.50  1.0048E+003
1039.00  1.0157E+003
1039.50  1.0199E+003
1040.00  1.0264E+003
1040.50  1.0092E+003
1041.00  1.0041E+003
1041.50  1.0012E+003
1042.00  1.0106E+003
1042.50  1.0269E+003
1043.00  1.0332E+003
1043.50  1.0226E+003
1044.00  1.0149E+003
1044.50  1.0114E+003
1045.00  1.0137E+003
1045.50  1.0262E+003
1046.00  1.0347E+003
1046.50  1.0306E+003
1047.00  1.0228E+003
1047.50  1.0063E+003
1048.00  9.9983E+002
1048.50  1.0013E+003
1049.00  1.0133E+003
1049.50  1.0289E+003
1050.00  1.0331E+003
1050.50  1.0368E+003
1051.00  1.0242E+003
1051.50  1.0223E+003
1052.00  1.0203E+003
1052.50  1.0176E+003
1053.00  1.0127E+003
1053.50  1.0100E+003
1054.00  1.0197E+003
1054.50  1.0300E+003
1055.00  1.0401E+003
1055.50  1.0319E+003
1056.00  1.0300E+003
1056.50  1.0295E+003
1057.00  1.0329E+003
1057.50  1.0347E+003
1058.00  1.0243E+003
1058.50  1.0063E+003
1059.00  1.0065E+003
1059.50  1.0103E+003
1060.00  1.0173E+003
1060.50  1.0103E+003
1061.00  1.0038E+003
1061.50  1.0005E+003
1062.00  9.9749E+002
1062.50  1.0018E+003
1063.00  9.8944E+002
1063.50  9.9701E+002
1064.00  1.0041E+003
1064.50  9.9789E+002
1065.00  1.0106E+003
1065.50  1.0216E+003
1066.00  1.0315E+003
1066.50  1.0329E+003
1067.00  1.0165E+003
1067.50  1.0252E+003
1068.00  1.0368E+003
1068.50  1.0282E+003
1069.00  1.0126E+003
1069.50  1.0006E+003
1070.00  1.0142E+003
1070.50  1.0477E+003
1071.00  1.0601E+003
1071.50  1.0529E+003
1072.00  1.0332E+003
1072.50  1.0162E+003
1073.00  1.0178E+003
1073.50  1.0242E+003
1074.00  1.0353E+003
1074.50  1.0331E+003
1075.00  1.0153E+003
1075.50  1.0053E+003
1076.00  1.0110E+003
1076.50  1.0234E+003
1077.00  1.0286E+003
1077.50  1.0186E+003
1078.00  1.0196E+003
1078.50  1.0130E+003
1079.00  1.0087E+003
1079.50  1.0061E+003
1080.00  1.0297E+003
1080.50  1.8906E+002
