" File: Users\media\Desktop\5.20 spectrum\n45c.S
" SCOPE->  Wave:699.31nm  Pix:1050  Val:1055.600  Time:500ms  Avg:1  Sm:1  Sg:0  Tc:off  SNAP  Xt:3  Ch:1  Xtrig
 191.00  1.0313E+003
 191.50  1.0538E+003
 192.00  1.0552E+003
 192.50  1.0398E+003
 193.00  1.0333E+003
 193.50  1.0248E+003
 194.00  1.0578E+003
 194.50  1.1019E+003
 195.00  1.0779E+003
 195.50  1.0390E+003
 196.00  1.0022E+003
 196.50  1.0052E+003
 197.00  1.0108E+003
 197.50  1.0345E+003
 198.00  1.0338E+003
 198.50  9.9695E+002
 199.00  9.9326E+002
 199.50  1.0001E+003
 200.00  1.0284E+003
 200.50  1.0412E+003
 201.00  1.0827E+003
 201.50  1.1146E+003
 202.00  1.0692E+003
 202.50  1.0432E+003
 203.00  1.0244E+003
 203.50  1.0093E+003
 204.00  1.0035E+003
 204.50  1.0071E+003
 205.00  1.0154E+003
 205.50  1.0228E+003
 206.00  1.0272E+003
 206.50  1.0322E+003
 207.00  1.0361E+003
 207.50  1.0390E+003
 208.00  1.0504E+003
 208.50  1.0601E+003
 209.00  1.0583E+003
 209.50  1.0553E+003
 210.00  1.0523E+003
 210.50  1.0426E+003
 211.00  1.0245E+003
 211.50  1.0083E+003
 212.00  1.0017E+003
 212.50  9.9839E+002
 213.00  1.0017E+003
 213.50  1.0027E+003
 214.00  1.0123E+003
 214.50  1.0182E+003
 215.00  1.0248E+003
 215.50  1.0286E+003
 216.00  1.0351E+003
 216.50  1.0391E+003
 217.00  1.0374E+003
 217.50  1.0314E+003
 218.00  1.0233E+003
 218.50  1.0162E+003
 219.00  1.0146E+003
 219.50  1.0201E+003
 220.00  1.0326E+003
 220.50  1.0465E+003
 221.00  1.0510E+003
 221.50  1.0437E+003
 222.00  1.0312E+003
 222.50  1.0143E+003
 223.00  9.9524E+002
 223.50  9.8405E+002
 224.00  9.8259E+002
 224.50  9.8834E+002
 225.00  9.9855E+002
 225.50  1.0088E+003
 226.00  1.0140E+003
 226.50  1.0121E+003
 227.00  1.0058E+003
 227.50  1.0010E+003
 228.00  9.9281E+002
 228.50  9.8752E+002
 229.00  9.8700E+002
 229.50  9.9223E+002
 230.00  9.9044E+002
 230.50  9.9267E+002
 231.00  9.9457E+002
 231.50  9.9649E+002
 232.00  9.9774E+002
 232.50  9.9855E+002
 233.00  1.0039E+003
 233.50  1.0090E+003
 234.00  1.0101E+003
 234.50  1.0046E+003
 235.00  1.0061E+003
 235.50  1.0026E+003
 236.00  9.9793E+002
 236.50  1.0040E+003
 237.00  1.0107E+003
 237.50  1.0109E+003
 238.00  1.0154E+003
 238.50  1.0272E+003
 239.00  1.0418E+003
 239.50  1.0538E+003
 240.00  1.0613E+003
 240.50  1.0650E+003
 241.00  1.0631E+003
 241.50  1.0527E+003
 242.00  1.0413E+003
 242.50  1.0392E+003
 243.00  1.0400E+003
 243.50  1.0266E+003
 244.00  1.0177E+003
 244.50  1.0128E+003
 245.00  1.0112E+003
 245.50  1.0078E+003
 246.00  1.0108E+003
 246.50  1.0149E+003
 247.00  1.0132E+003
 247.50  1.0079E+003
 248.00  1.0074E+003
 248.50  1.0151E+003
 249.00  1.0216E+003
 249.50  1.0278E+003
 250.00  1.0391E+003
 250.50  1.0407E+003
 251.00  1.0306E+003
 251.50  1.0239E+003
 252.00  1.0203E+003
 252.50  1.0115E+003
 253.00  1.0147E+003
 253.50  1.0306E+003
 254.00  1.0417E+003
 254.50  1.0445E+003
 255.00  1.0450E+003
 255.50  1.0450E+003
 256.00  1.0408E+003
 256.50  1.0343E+003
 257.00  1.0341E+003
 257.50  1.0355E+003
 258.00  1.0333E+003
 258.50  1.0218E+003
 259.00  1.0089E+003
 259.50  1.0138E+003
 260.00  1.0175E+003
 260.50  1.0210E+003
 261.00  1.0248E+003
 261.50  1.0309E+003
 262.00  1.0263E+003
 262.50  1.0216E+003
 263.00  1.0184E+003
 263.50  1.0167E+003
 264.00  1.0161E+003
 264.50  1.0195E+003
 265.00  1.0278E+003
 265.50  1.0312E+003
 266.00  1.0276E+003
 266.50  1.0212E+003
 267.00  1.0161E+003
 267.50  1.0061E+003
 268.00  9.9829E+002
 268.50  1.0096E+003
 269.00  1.0163E+003
 269.50  1.0280E+003
 270.00  1.0317E+003
 270.50  1.0372E+003
 271.00  1.0385E+003
 271.50  1.0400E+003
 272.00  1.0391E+003
 272.50  1.0392E+003
 273.00  1.0363E+003
 273.50  1.0268E+003
 274.00  1.0168E+003
 274.50  1.0051E+003
 275.00  9.9031E+002
 275.50  9.8388E+002
 276.00  9.8981E+002
 276.50  1.0045E+003
 277.00  1.0135E+003
 277.50  1.0245E+003
 278.00  1.0272E+003
 278.50  1.0190E+003
 279.00  1.0116E+003
 279.50  1.0087E+003
 280.00  1.0101E+003
 280.50  1.0116E+003
 281.00  1.0131E+003
 281.50  1.0057E+003
 282.00  9.9422E+002
 282.50  9.8610E+002
 283.00  9.7993E+002
 283.50  9.7574E+002
 284.00  9.7863E+002
 284.50  9.8792E+002
 285.00  9.9449E+002
 285.50  1.0006E+003
 286.00  1.0095E+003
 286.50  1.0108E+003
 287.00  1.0072E+003
 287.50  1.0064E+003
 288.00  1.0051E+003
 288.50  1.0147E+003
 289.00  1.0299E+003
 289.50  1.0353E+003
 290.00  1.0336E+003
 290.50  1.0283E+003
 291.00  1.0125E+003
 291.50  9.9196E+002
 292.00  9.8337E+002
 292.50  9.8896E+002
 293.00  9.9649E+002
 293.50  1.0005E+003
 294.00  1.0051E+003
 294.50  1.0072E+003
 295.00  1.0007E+003
 295.50  9.9605E+002
 296.00  9.9946E+002
 296.50  1.0026E+003
 297.00  1.0023E+003
 297.50  1.0096E+003
 298.00  1.0091E+003
 298.50  1.0066E+003
 299.00  1.0053E+003
 299.50  1.0059E+003
 300.00  1.0006E+003
 300.50  1.0036E+003
 301.00  1.0028E+003
 301.50  9.9628E+002
 302.00  9.9101E+002
 302.50  9.9316E+002
 303.00  9.9247E+002
 303.50  9.8795E+002
 304.00  9.9191E+002
 304.50  1.0043E+003
 305.00  1.0116E+003
 305.50  1.0109E+003
 306.00  1.0123E+003
 306.50  1.0150E+003
 307.00  1.0099E+003
 307.50  1.0030E+003
 308.00  1.0035E+003
 308.50  1.0125E+003
 309.00  1.0154E+003
 309.50  1.0151E+003
 310.00  1.0130E+003
 310.50  1.0130E+003
 311.00  1.0128E+003
 311.50  1.0157E+003
 312.00  1.0165E+003
 312.50  1.0159E+003
 313.00  1.0109E+003
 313.50  1.0072E+003
 314.00  1.0122E+003
 314.50  1.0226E+003
 315.00  1.0339E+003
 315.50  1.0434E+003
 316.00  1.0457E+003
 316.50  1.0407E+003
 317.00  1.0325E+003
 317.50  1.0233E+003
 318.00  1.0173E+003
 318.50  1.0188E+003
 319.00  1.0249E+003
 319.50  1.0334E+003
 320.00  1.0437E+003
 320.50  1.0477E+003
 321.00  1.0538E+003
 321.50  1.0556E+003
 322.00  1.0443E+003
 322.50  1.0229E+003
 323.00  1.0125E+003
 323.50  1.0062E+003
 324.00  9.9250E+002
 324.50  9.8483E+002
 325.00  9.8640E+002
 325.50  9.8923E+002
 326.00  9.8269E+002
 326.50  9.8027E+002
 327.00  9.9272E+002
 327.50  1.0050E+003
 328.00  1.0176E+003
 328.50  1.0319E+003
 329.00  1.0461E+003
 329.50  1.0473E+003
 330.00  1.0439E+003
 330.50  1.0428E+003
 331.00  1.0420E+003
 331.50  1.0443E+003
 332.00  1.0542E+003
 332.50  1.0652E+003
 333.00  1.0655E+003
 333.50  1.0585E+003
 334.00  1.0515E+003
 334.50  1.0435E+003
 335.00  1.0408E+003
 335.50  1.0403E+003
 336.00  1.0384E+003
 336.50  1.0383E+003
 337.00  1.0415E+003
 337.50  1.0360E+003
 338.00  1.0344E+003
 338.50  1.0473E+003
 339.00  1.0482E+003
 339.50  1.0432E+003
 340.00  1.0327E+003
 340.50  1.0237E+003
 341.00  1.0162E+003
 341.50  1.0167E+003
 342.00  1.0068E+003
 342.50  1.0005E+003
 343.00  1.0004E+003
 343.50  1.0020E+003
 344.00  1.0065E+003
 344.50  1.0132E+003
 345.00  1.0230E+003
 345.50  1.0288E+003
 346.00  1.0292E+003
 346.50  1.0269E+003
 347.00  1.0304E+003
 347.50  1.0344E+003
 348.00  1.0409E+003
 348.50  1.0472E+003
 349.00  1.0475E+003
 349.50  1.0470E+003
 350.00  1.0437E+003
 350.50  1.0318E+003
 351.00  1.0196E+003
 351.50  1.0157E+003
 352.00  1.0122E+003
 352.50  1.0102E+003
 353.00  1.0174E+003
 353.50  1.0299E+003
 354.00  1.0393E+003
 354.50  1.0398E+003
 355.00  1.0340E+003
 355.50  1.0319E+003
 356.00  1.0305E+003
 356.50  1.0211E+003
 357.00  1.0169E+003
 357.50  1.0142E+003
 358.00  1.0100E+003
 358.50  9.9990E+002
 359.00  9.9531E+002
 359.50  1.0035E+003
 360.00  1.0106E+003
 360.50  1.0209E+003
 361.00  1.0273E+003
 361.50  1.0304E+003
 362.00  1.0211E+003
 362.50  1.0198E+003
 363.00  1.0163E+003
 363.50  1.0050E+003
 364.00  9.9633E+002
 364.50  9.9041E+002
 365.00  9.9052E+002
 365.50  9.9502E+002
 366.00  1.0092E+003
 366.50  1.0293E+003
 367.00  1.0428E+003
 367.50  1.0448E+003
 368.00  1.0339E+003
 368.50  1.0176E+003
 369.00  1.0026E+003
 369.50  1.0008E+003
 370.00  1.0105E+003
 370.50  1.0250E+003
 371.00  1.0383E+003
 371.50  1.0412E+003
 372.00  1.0343E+003
 372.50  1.0271E+003
 373.00  1.0240E+003
 373.50  1.0241E+003
 374.00  1.0270E+003
 374.50  1.0293E+003
 375.00  1.0292E+003
 375.50  1.0310E+003
 376.00  1.0359E+003
 376.50  1.0421E+003
 377.00  1.0484E+003
 377.50  1.0484E+003
 378.00  1.0406E+003
 378.50  1.0353E+003
 379.00  1.0351E+003
 379.50  1.0354E+003
 380.00  1.0327E+003
 380.50  1.0298E+003
 381.00  1.0249E+003
 381.50  1.0170E+003
 382.00  1.0128E+003
 382.50  1.0107E+003
 383.00  1.0089E+003
 383.50  1.0073E+003
 384.00  1.0055E+003
 384.50  1.0006E+003
 385.00  1.0018E+003
 385.50  1.0079E+003
 386.00  1.0131E+003
 386.50  1.0123E+003
 387.00  1.0056E+003
 387.50  9.9883E+002
 388.00  9.9020E+002
 388.50  9.8463E+002
 389.00  9.8473E+002
 389.50  9.9959E+002
 390.00  1.0142E+003
 390.50  1.0176E+003
 391.00  1.0113E+003
 391.50  1.0057E+003
 392.00  9.9318E+002
 392.50  9.8296E+002
 393.00  9.7867E+002
 393.50  9.8317E+002
 394.00  1.0017E+003
 394.50  1.0177E+003
 395.00  1.0319E+003
 395.50  1.0458E+003
 396.00  1.0586E+003
 396.50  1.0595E+003
 397.00  1.0663E+003
 397.50  1.0619E+003
 398.00  1.0586E+003
 398.50  1.0573E+003
 399.00  1.0466E+003
 399.50  1.0243E+003
 400.00  1.0110E+003
 400.50  1.0070E+003
 401.00  1.0012E+003
 401.50  9.9349E+002
 402.00  9.9754E+002
 402.50  9.9897E+002
 403.00  1.0029E+003
 403.50  1.0122E+003
 404.00  1.0326E+003
 404.50  1.0441E+003
 405.00  1.0545E+003
 405.50  1.0620E+003
 406.00  1.0597E+003
 406.50  1.0467E+003
 407.00  1.0350E+003
 407.50  1.0344E+003
 408.00  1.0252E+003
 408.50  1.0196E+003
 409.00  1.0165E+003
 409.50  1.0185E+003
 410.00  1.0129E+003
 410.50  1.0137E+003
 411.00  1.0165E+003
 411.50  1.0275E+003
 412.00  1.0313E+003
 412.50  1.0318E+003
 413.00  1.0293E+003
 413.50  1.0300E+003
 414.00  1.0313E+003
 414.50  1.0470E+003
 415.00  1.0602E+003
 415.50  1.0668E+003
 416.00  1.0598E+003
 416.50  1.0422E+003
 417.00  1.0332E+003
 417.50  1.0326E+003
 418.00  1.0336E+003
 418.50  1.0458E+003
 419.00  1.0607E+003
 419.50  1.0576E+003
 420.00  1.0518E+003
 420.50  1.0442E+003
 421.00  1.0375E+003
 421.50  1.0309E+003
 422.00  1.0205E+003
 422.50  1.0143E+003
 423.00  1.0190E+003
 423.50  1.0198E+003
 424.00  1.0247E+003
 424.50  1.0328E+003
 425.00  1.0511E+003
 425.50  1.0654E+003
 426.00  1.0750E+003
 426.50  1.0845E+003
 427.00  1.0904E+003
 427.50  1.0799E+003
 428.00  1.0730E+003
 428.50  1.0742E+003
 429.00  1.0651E+003
 429.50  1.0591E+003
 430.00  1.0575E+003
 430.50  1.0511E+003
 431.00  1.0409E+003
 431.50  1.0390E+003
 432.00  1.0418E+003
 432.50  1.0542E+003
 433.00  1.0661E+003
 433.50  1.0768E+003
 434.00  1.1056E+003
 434.50  1.1387E+003
 435.00  1.1515E+003
 435.50  1.1572E+003
 436.00  1.1576E+003
 436.50  1.1410E+003
 437.00  1.1140E+003
 437.50  1.0931E+003
 438.00  1.0763E+003
 438.50  1.0656E+003
 439.00  1.0596E+003
 439.50  1.0548E+003
 440.00  1.0548E+003
 440.50  1.0607E+003
 441.00  1.0614E+003
 441.50  1.0573E+003
 442.00  1.0572E+003
 442.50  1.0608E+003
 443.00  1.0627E+003
 443.50  1.0599E+003
 444.00  1.0581E+003
 444.50  1.0570E+003
 445.00  1.0509E+003
 445.50  1.0422E+003
 446.00  1.0399E+003
 446.50  1.0405E+003
 447.00  1.0375E+003
 447.50  1.0321E+003
 448.00  1.0317E+003
 448.50  1.0319E+003
 449.00  1.0275E+003
 449.50  1.0242E+003
 450.00  1.0353E+003
 450.50  1.0499E+003
 451.00  1.0568E+003
 451.50  1.0590E+003
 452.00  1.0644E+003
 452.50  1.0592E+003
 453.00  1.0494E+003
 453.50  1.0499E+003
 454.00  1.0539E+003
 454.50  1.0525E+003
 455.00  1.0434E+003
 455.50  1.0392E+003
 456.00  1.0295E+003
 456.50  1.0209E+003
 457.00  1.0151E+003
 457.50  1.0163E+003
 458.00  1.0170E+003
 458.50  1.0213E+003
 459.00  1.0250E+003
 459.50  1.0262E+003
 460.00  1.0297E+003
 460.50  1.0247E+003
 461.00  1.0202E+003
 461.50  1.0196E+003
 462.00  1.0160E+003
 462.50  1.0185E+003
 463.00  1.0326E+003
 463.50  1.0384E+003
 464.00  1.0398E+003
 464.50  1.0453E+003
 465.00  1.0448E+003
 465.50  1.0419E+003
 466.00  1.0463E+003
 466.50  1.0539E+003
 467.00  1.0588E+003
 467.50  1.0571E+003
 468.00  1.0485E+003
 468.50  1.0379E+003
 469.00  1.0278E+003
 469.50  1.0190E+003
 470.00  1.0186E+003
 470.50  1.0219E+003
 471.00  1.0212E+003
 471.50  1.0183E+003
 472.00  1.0156E+003
 472.50  1.0104E+003
 473.00  1.0098E+003
 473.50  1.0192E+003
 474.00  1.0333E+003
 474.50  1.0493E+003
 475.00  1.0543E+003
 475.50  1.0478E+003
 476.00  1.0405E+003
 476.50  1.0305E+003
 477.00  1.0148E+003
 477.50  1.0108E+003
 478.00  1.0241E+003
 478.50  1.0309E+003
 479.00  1.0373E+003
 479.50  1.0511E+003
 480.00  1.0631E+003
 480.50  1.0603E+003
 481.00  1.0604E+003
 481.50  1.0568E+003
 482.00  1.0494E+003
 482.50  1.0466E+003
 483.00  1.0504E+003
 483.50  1.0545E+003
 484.00  1.0621E+003
 484.50  1.0668E+003
 485.00  1.0718E+003
 485.50  1.0779E+003
 486.00  1.0787E+003
 486.50  1.0791E+003
 487.00  1.0818E+003
 487.50  1.0842E+003
 488.00  1.0823E+003
 488.50  1.0789E+003
 489.00  1.0789E+003
 489.50  1.0760E+003
 490.00  1.0671E+003
 490.50  1.0654E+003
 491.00  1.0640E+003
 491.50  1.0592E+003
 492.00  1.0568E+003
 492.50  1.0473E+003
 493.00  1.0356E+003
 493.50  1.0272E+003
 494.00  1.0175E+003
 494.50  1.0101E+003
 495.00  1.0089E+003
 495.50  1.0101E+003
 496.00  1.0132E+003
 496.50  1.0154E+003
 497.00  1.0174E+003
 497.50  1.0352E+003
 498.00  1.0557E+003
 498.50  1.0658E+003
 499.00  1.0682E+003
 499.50  1.0675E+003
 500.00  1.0536E+003
 500.50  1.0347E+003
 501.00  1.0271E+003
 501.50  1.0290E+003
 502.00  1.0250E+003
 502.50  1.0258E+003
 503.00  1.0344E+003
 503.50  1.0422E+003
 504.00  1.0436E+003
 504.50  1.0457E+003
 505.00  1.0443E+003
 505.50  1.0388E+003
 506.00  1.0388E+003
 506.50  1.0469E+003
 507.00  1.0570E+003
 507.50  1.0576E+003
 508.00  1.0603E+003
 508.50  1.0545E+003
 509.00  1.0468E+003
 509.50  1.0431E+003
 510.00  1.0460E+003
 510.50  1.0509E+003
 511.00  1.0552E+003
 511.50  1.0610E+003
 512.00  1.0661E+003
 512.50  1.0588E+003
 513.00  1.0459E+003
 513.50  1.0374E+003
 514.00  1.0276E+003
 514.50  1.0249E+003
 515.00  1.0252E+003
 515.50  1.0233E+003
 516.00  1.0281E+003
 516.50  1.0276E+003
 517.00  1.0168E+003
 517.50  1.0216E+003
 518.00  1.0338E+003
 518.50  1.0385E+003
 519.00  1.0449E+003
 519.50  1.0453E+003
 520.00  1.0385E+003
 520.50  1.0379E+003
 521.00  1.0409E+003
 521.50  1.0475E+003
 522.00  1.0588E+003
 522.50  1.0627E+003
 523.00  1.0536E+003
 523.50  1.0387E+003
 524.00  1.0242E+003
 524.50  1.0155E+003
 525.00  1.0129E+003
 525.50  1.0129E+003
 526.00  1.0172E+003
 526.50  1.0250E+003
 527.00  1.0371E+003
 527.50  1.0332E+003
 528.00  1.0304E+003
 528.50  1.0275E+003
 529.00  1.0174E+003
 529.50  1.0050E+003
 530.00  1.0067E+003
 530.50  1.0146E+003
 531.00  1.0151E+003
 531.50  1.0216E+003
 532.00  1.0344E+003
 532.50  1.0418E+003
 533.00  1.0476E+003
 533.50  1.0532E+003
 534.00  1.0550E+003
 534.50  1.0528E+003
 535.00  1.0471E+003
 535.50  1.0452E+003
 536.00  1.0472E+003
 536.50  1.0483E+003
 537.00  1.0609E+003
 537.50  1.0731E+003
 538.00  1.0917E+003
 538.50  1.1176E+003
 539.00  1.1470E+003
 539.50  1.1844E+003
 540.00  1.2515E+003
 540.50  1.3475E+003
 541.00  1.4545E+003
 541.50  1.5590E+003
 542.00  1.6471E+003
 542.50  1.7087E+003
 543.00  1.7311E+003
 543.50  1.7212E+003
 544.00  1.7352E+003
 544.50  1.8040E+003
 545.00  1.8282E+003
 545.50  1.7950E+003
 546.00  1.7284E+003
 546.50  1.6048E+003
 547.00  1.4403E+003
 547.50  1.3302E+003
 548.00  1.2873E+003
 548.50  1.2720E+003
 549.00  1.2647E+003
 549.50  1.2667E+003
 550.00  1.2628E+003
 550.50  1.2519E+003
 551.00  1.2375E+003
 551.50  1.2222E+003
 552.00  1.1873E+003
 552.50  1.1524E+003
 553.00  1.1309E+003
 553.50  1.1162E+003
 554.00  1.0975E+003
 554.50  1.0869E+003
 555.00  1.0795E+003
 555.50  1.0756E+003
 556.00  1.0822E+003
 556.50  1.0880E+003
 557.00  1.0884E+003
 557.50  1.0840E+003
 558.00  1.0720E+003
 558.50  1.0570E+003
 559.00  1.0529E+003
 559.50  1.0606E+003
 560.00  1.0665E+003
 560.50  1.0645E+003
 561.00  1.0691E+003
 561.50  1.0633E+003
 562.00  1.0495E+003
 562.50  1.0371E+003
 563.00  1.0349E+003
 563.50  1.0406E+003
 564.00  1.0483E+003
 564.50  1.0561E+003
 565.00  1.0659E+003
 565.50  1.0690E+003
 566.00  1.0694E+003
 566.50  1.0644E+003
 567.00  1.0559E+003
 567.50  1.0501E+003
 568.00  1.0447E+003
 568.50  1.0496E+003
 569.00  1.0625E+003
 569.50  1.0786E+003
 570.00  1.0925E+003
 570.50  1.0947E+003
 571.00  1.0862E+003
 571.50  1.0759E+003
 572.00  1.0690E+003
 572.50  1.0663E+003
 573.00  1.0694E+003
 573.50  1.0799E+003
 574.00  1.0918E+003
 574.50  1.1092E+003
 575.00  1.1621E+003
 575.50  1.2388E+003
 576.00  1.2955E+003
 576.50  1.3393E+003
 577.00  1.4024E+003
 577.50  1.4784E+003
 578.00  1.5694E+003
 578.50  1.6827E+003
 579.00  1.7909E+003
 579.50  1.8254E+003
 580.00  1.8351E+003
 580.50  1.8711E+003
 581.00  1.9494E+003
 581.50  2.0882E+003
 582.00  2.2806E+003
 582.50  2.4825E+003
 583.00  2.6365E+003
 583.50  2.7069E+003
 584.00  2.7060E+003
 584.50  2.6567E+003
 585.00  2.6469E+003
 585.50  2.7931E+003
 586.00  3.0370E+003
 586.50  3.2393E+003
 587.00  3.3403E+003
 587.50  3.2931E+003
 588.00  3.1134E+003
 588.50  2.8973E+003
 589.00  2.7161E+003
 589.50  2.5761E+003
 590.00  2.4688E+003
 590.50  2.3958E+003
 591.00  2.3763E+003
 591.50  2.4201E+003
 592.00  2.4719E+003
 592.50  2.4519E+003
 593.00  2.3491E+003
 593.50  2.1651E+003
 594.00  1.9507E+003
 594.50  1.7765E+003
 595.00  1.6639E+003
 595.50  1.6155E+003
 596.00  1.6124E+003
 596.50  1.6274E+003
 597.00  1.6735E+003
 597.50  1.7607E+003
 598.00  1.8443E+003
 598.50  1.9044E+003
 599.00  1.9220E+003
 599.50  1.8742E+003
 600.00  1.7815E+003
 600.50  1.6821E+003
 601.00  1.5941E+003
 601.50  1.5320E+003
 602.00  1.4927E+003
 602.50  1.4640E+003
 603.00  1.4423E+003
 603.50  1.4463E+003
 604.00  1.4635E+003
 604.50  1.4921E+003
 605.00  1.5382E+003
 605.50  1.5985E+003
 606.00  1.6627E+003
 606.50  1.7547E+003
 607.00  1.9035E+003
 607.50  2.0986E+003
 608.00  2.4486E+003
 608.50  3.1792E+003
 609.00  4.7699E+003
 609.50  7.4500E+003
 610.00  1.0184E+004
 610.50  1.1929E+004
 611.00  1.2378E+004
 611.50  1.1283E+004
 612.00  9.1347E+003
 612.50  7.2054E+003
 613.00  6.0288E+003
 613.50  5.3397E+003
 614.00  4.8017E+003
 614.50  4.3015E+003
 615.00  3.8353E+003
 615.50  3.4328E+003
 616.00  3.1186E+003
 616.50  2.9166E+003
 617.00  2.8124E+003
 617.50  2.7648E+003
 618.00  2.7805E+003
 618.50  2.8594E+003
 619.00  2.9576E+003
 619.50  3.0313E+003
 620.00  3.0524E+003
 620.50  3.0079E+003
 621.00  2.8989E+003
 621.50  2.7554E+003
 622.00  2.6181E+003
 622.50  2.5192E+003
 623.00  2.4382E+003
 623.50  2.3701E+003
 624.00  2.3082E+003
 624.50  2.2300E+003
 625.00  2.1385E+003
 625.50  2.0603E+003
 626.00  2.0008E+003
 626.50  1.9680E+003
 627.00  1.9521E+003
 627.50  1.9358E+003
 628.00  1.9458E+003
 628.50  2.0156E+003
 629.00  2.1763E+003
 629.50  2.3608E+003
 630.00  2.4684E+003
 630.50  2.4520E+003
 631.00  2.2859E+003
 631.50  2.0086E+003
 632.00  1.7461E+003
 632.50  1.5775E+003
 633.00  1.4826E+003
 633.50  1.4244E+003
 634.00  1.3768E+003
 634.50  1.3349E+003
 635.00  1.2959E+003
 635.50  1.2675E+003
 636.00  1.2629E+003
 636.50  1.2531E+003
 637.00  1.2341E+003
 637.50  1.2157E+003
 638.00  1.2003E+003
 638.50  1.1840E+003
 639.00  1.1813E+003
 639.50  1.1822E+003
 640.00  1.1819E+003
 640.50  1.1868E+003
 641.00  1.1897E+003
 641.50  1.1984E+003
 642.00  1.2143E+003
 642.50  1.2259E+003
 643.00  1.2295E+003
 643.50  1.2349E+003
 644.00  1.2377E+003
 644.50  1.2420E+003
 645.00  1.2502E+003
 645.50  1.2583E+003
 646.00  1.2541E+003
 646.50  1.2560E+003
 647.00  1.2624E+003
 647.50  1.2730E+003
 648.00  1.3030E+003
 648.50  1.3546E+003
 649.00  1.3977E+003
 649.50  1.4278E+003
 650.00  1.4381E+003
 650.50  1.4287E+003
 651.00  1.3941E+003
 651.50  1.3601E+003
 652.00  1.3300E+003
 652.50  1.2918E+003
 653.00  1.2510E+003
 653.50  1.2170E+003
 654.00  1.1832E+003
 654.50  1.1610E+003
 655.00  1.1475E+003
 655.50  1.1458E+003
 656.00  1.1532E+003
 656.50  1.1698E+003
 657.00  1.1844E+003
 657.50  1.1881E+003
 658.00  1.1841E+003
 658.50  1.1618E+003
 659.00  1.1402E+003
 659.50  1.1325E+003
 660.00  1.1436E+003
 660.50  1.1753E+003
 661.00  1.2215E+003
 661.50  1.2615E+003
 662.00  1.2781E+003
 662.50  1.2677E+003
 663.00  1.2504E+003
 663.50  1.2274E+003
 664.00  1.2100E+003
 664.50  1.1981E+003
 665.00  1.1878E+003
 665.50  1.1809E+003
 666.00  1.1836E+003
 666.50  1.1834E+003
 667.00  1.1866E+003
 667.50  1.1993E+003
 668.00  1.2088E+003
 668.50  1.2088E+003
 669.00  1.2110E+003
 669.50  1.1930E+003
 670.00  1.1632E+003
 670.50  1.1480E+003
 671.00  1.1491E+003
 671.50  1.1481E+003
 672.00  1.1492E+003
 672.50  1.1519E+003
 673.00  1.1413E+003
 673.50  1.1321E+003
 674.00  1.1286E+003
 674.50  1.1179E+003
 675.00  1.1169E+003
 675.50  1.1177E+003
 676.00  1.1264E+003
 676.50  1.1368E+003
 677.00  1.1416E+003
 677.50  1.1402E+003
 678.00  1.1349E+003
 678.50  1.1266E+003
 679.00  1.1235E+003
 679.50  1.1263E+003
 680.00  1.1349E+003
 680.50  1.1419E+003
 681.00  1.1454E+003
 681.50  1.1472E+003
 682.00  1.1403E+003
 682.50  1.1248E+003
 683.00  1.1131E+003
 683.50  1.1054E+003
 684.00  1.1036E+003
 684.50  1.1133E+003
 685.00  1.1406E+003
 685.50  1.1756E+003
 686.00  1.2036E+003
 686.50  1.2309E+003
 687.00  1.2408E+003
 687.50  1.2234E+003
 688.00  1.1913E+003
 688.50  1.1520E+003
 689.00  1.1190E+003
 689.50  1.0989E+003
 690.00  1.0841E+003
 690.50  1.0780E+003
 691.00  1.0718E+003
 691.50  1.0743E+003
 692.00  1.1000E+003
 692.50  1.1307E+003
 693.00  1.1539E+003
 693.50  1.1632E+003
 694.00  1.1504E+003
 694.50  1.1243E+003
 695.00  1.1050E+003
 695.50  1.0963E+003
 696.00  1.0862E+003
 696.50  1.0830E+003
 697.00  1.0742E+003
 697.50  1.0712E+003
 698.00  1.0714E+003
 698.50  1.0612E+003
 699.00  1.0539E+003
 699.50  1.0566E+003
 700.00  1.0599E+003
 700.50  1.0655E+003
 701.00  1.0810E+003
 701.50  1.0835E+003
 702.00  1.0732E+003
 702.50  1.0847E+003
 703.00  1.1051E+003
 703.50  1.1253E+003
 704.00  1.1621E+003
 704.50  1.2091E+003
 705.00  1.2725E+003
 705.50  1.3549E+003
 706.00  1.4310E+003
 706.50  1.4715E+003
 707.00  1.4887E+003
 707.50  1.5077E+003
 708.00  1.5396E+003
 708.50  1.5563E+003
 709.00  1.5320E+003
 709.50  1.4774E+003
 710.00  1.3980E+003
 710.50  1.3675E+003
 711.00  1.4236E+003
 711.50  1.4678E+003
 712.00  1.4598E+003
 712.50  1.4028E+003
 713.00  1.2983E+003
 713.50  1.1981E+003
 714.00  1.1303E+003
 714.50  1.0983E+003
 715.00  1.0688E+003
 715.50  1.0453E+003
 716.00  1.0377E+003
 716.50  1.0350E+003
 717.00  1.0394E+003
 717.50  1.0459E+003
 718.00  1.0426E+003
 718.50  1.0379E+003
 719.00  1.0366E+003
 719.50  1.0373E+003
 720.00  1.0404E+003
 720.50  1.0517E+003
 721.00  1.0601E+003
 721.50  1.0670E+003
 722.00  1.0670E+003
 722.50  1.0579E+003
 723.00  1.0384E+003
 723.50  1.0159E+003
 724.00  9.9941E+002
 724.50  1.0006E+003
 725.00  1.0142E+003
 725.50  1.0281E+003
 726.00  1.0379E+003
 726.50  1.0332E+003
 727.00  1.0282E+003
 727.50  1.0283E+003
 728.00  1.0242E+003
 728.50  1.0235E+003
 729.00  1.0298E+003
 729.50  1.0161E+003
 730.00  1.0084E+003
 730.50  1.0023E+003
 731.00  9.9348E+002
 731.50  9.8982E+002
 732.00  1.0010E+003
 732.50  1.0233E+003
 733.00  1.0348E+003
 733.50  1.0508E+003
 734.00  1.0571E+003
 734.50  1.0486E+003
 735.00  1.0494E+003
 735.50  1.0428E+003
 736.00  1.0357E+003
 736.50  1.0389E+003
 737.00  1.0412E+003
 737.50  1.0440E+003
 738.00  1.0533E+003
 738.50  1.0487E+003
 739.00  1.0424E+003
 739.50  1.0422E+003
 740.00  1.0447E+003
 740.50  1.0487E+003
 741.00  1.0528E+003
 741.50  1.0573E+003
 742.00  1.0596E+003
 742.50  1.0547E+003
 743.00  1.0456E+003
 743.50  1.0394E+003
 744.00  1.0346E+003
 744.50  1.0405E+003
 745.00  1.0518E+003
 745.50  1.0555E+003
 746.00  1.0411E+003
 746.50  1.0249E+003
 747.00  1.0208E+003
 747.50  1.0160E+003
 748.00  1.0120E+003
 748.50  1.0210E+003
 749.00  1.0195E+003
 749.50  1.0279E+003
 750.00  1.0532E+003
 750.50  1.0627E+003
 751.00  1.0598E+003
 751.50  1.0544E+003
 752.00  1.0347E+003
 752.50  1.0270E+003
 753.00  1.0209E+003
 753.50  1.0184E+003
 754.00  1.0203E+003
 754.50  1.0192E+003
 755.00  1.0297E+003
 755.50  1.0293E+003
 756.00  1.0269E+003
 756.50  1.0304E+003
 757.00  1.0394E+003
 757.50  1.0577E+003
 758.00  1.0735E+003
 758.50  1.0789E+003
 759.00  1.0673E+003
 759.50  1.0449E+003
 760.00  1.0308E+003
 760.50  1.0170E+003
 761.00  1.0079E+003
 761.50  1.0139E+003
 762.00  1.0229E+003
 762.50  1.0348E+003
 763.00  1.0478E+003
 763.50  1.0481E+003
 764.00  1.0400E+003
 764.50  1.0268E+003
 765.00  1.0246E+003
 765.50  1.0314E+003
 766.00  1.0412E+003
 766.50  1.0487E+003
 767.00  1.0511E+003
 767.50  1.0465E+003
 768.00  1.0303E+003
 768.50  1.0200E+003
 769.00  1.0101E+003
 769.50  1.0073E+003
 770.00  1.0182E+003
 770.50  1.0376E+003
 771.00  1.0522E+003
 771.50  1.0578E+003
 772.00  1.0514E+003
 772.50  1.0380E+003
 773.00  1.0299E+003
 773.50  1.0237E+003
 774.00  1.0127E+003
 774.50  1.0101E+003
 775.00  1.0094E+003
 775.50  1.0136E+003
 776.00  1.0218E+003
 776.50  1.0225E+003
 777.00  1.0133E+003
 777.50  9.9661E+002
 778.00  9.8492E+002
 778.50  9.8184E+002
 779.00  9.8472E+002
 779.50  9.9549E+002
 780.00  1.0146E+003
 780.50  1.0187E+003
 781.00  1.0191E+003
 781.50  1.0167E+003
 782.00  1.0101E+003
 782.50  1.0147E+003
 783.00  1.0318E+003
 783.50  1.0419E+003
 784.00  1.0435E+003
 784.50  1.0372E+003
 785.00  1.0278E+003
 785.50  1.0203E+003
 786.00  1.0169E+003
 786.50  1.0287E+003
 787.00  1.0266E+003
 787.50  1.0292E+003
 788.00  1.0403E+003
 788.50  1.0347E+003
 789.00  1.0331E+003
 789.50  1.0277E+003
 790.00  1.0152E+003
 790.50  1.0091E+003
 791.00  1.0082E+003
 791.50  1.0091E+003
 792.00  1.0069E+003
 792.50  1.0125E+003
 793.00  1.0145E+003
 793.50  1.0095E+003
 794.00  1.0130E+003
 794.50  1.0109E+003
 795.00  1.0133E+003
 795.50  1.0187E+003
 796.00  1.0184E+003
 796.50  1.0192E+003
 797.00  1.0156E+003
 797.50  1.0206E+003
 798.00  1.0310E+003
 798.50  1.0349E+003
 799.00  1.0337E+003
 799.50  1.0352E+003
 800.00  1.0373E+003
 800.50  1.0414E+003
 801.00  1.0491E+003
 801.50  1.0428E+003
 802.00  1.0370E+003
 802.50  1.0379E+003
 803.00  1.0343E+003
 803.50  1.0237E+003
 804.00  1.0228E+003
 804.50  1.0228E+003
 805.00  1.0178E+003
 805.50  1.0248E+003
 806.00  1.0394E+003
 806.50  1.0487E+003
 807.00  1.0712E+003
 807.50  1.0856E+003
 808.00  1.0878E+003
 808.50  1.0817E+003
 809.00  1.0763E+003
 809.50  1.0744E+003
 810.00  1.0756E+003
 810.50  1.0878E+003
 811.00  1.0775E+003
 811.50  1.0564E+003
 812.00  1.0393E+003
 812.50  1.0140E+003
 813.00  1.0130E+003
 813.50  1.0188E+003
 814.00  1.0221E+003
 814.50  1.0292E+003
 815.00  1.0221E+003
 815.50  1.0176E+003
 816.00  1.0129E+003
 816.50  1.0095E+003
 817.00  1.0187E+003
 817.50  1.0361E+003
 818.00  1.0535E+003
 818.50  1.0548E+003
 819.00  1.0582E+003
 819.50  1.0520E+003
 820.00  1.0434E+003
 820.50  1.0463E+003
 821.00  1.0320E+003
 821.50  1.0218E+003
 822.00  1.0104E+003
 822.50  1.0015E+003
 823.00  1.0002E+003
 823.50  1.0100E+003
 824.00  1.0242E+003
 824.50  1.0253E+003
 825.00  1.0383E+003
 825.50  1.0433E+003
 826.00  1.0478E+003
 826.50  1.0532E+003
 827.00  1.0459E+003
 827.50  1.0334E+003
 828.00  1.0323E+003
 828.50  1.0405E+003
 829.00  1.0479E+003
 829.50  1.0528E+003
 830.00  1.0474E+003
 830.50  1.0375E+003
 831.00  1.0398E+003
 831.50  1.0494E+003
 832.00  1.0505E+003
 832.50  1.0576E+003
 833.00  1.0543E+003
 833.50  1.0526E+003
 834.00  1.0541E+003
 834.50  1.0429E+003
 835.00  1.0351E+003
 835.50  1.0229E+003
 836.00  1.0148E+003
 836.50  1.0177E+003
 837.00  1.0241E+003
 837.50  1.0336E+003
 838.00  1.0409E+003
 838.50  1.0423E+003
 839.00  1.0391E+003
 839.50  1.0400E+003
 840.00  1.0437E+003
 840.50  1.0564E+003
 841.00  1.0771E+003
 841.50  1.0879E+003
 842.00  1.0782E+003
 842.50  1.0552E+003
 843.00  1.0270E+003
 843.50  1.0141E+003
 844.00  1.0220E+003
 844.50  1.0358E+003
 845.00  1.0490E+003
 845.50  1.0468E+003
 846.00  1.0364E+003
 846.50  1.0250E+003
 847.00  1.0213E+003
 847.50  1.0257E+003
 848.00  1.0238E+003
 848.50  1.0212E+003
 849.00  1.0132E+003
 849.50  9.9904E+002
 850.00  9.9879E+002
 850.50  1.0064E+003
 851.00  1.0184E+003
 851.50  1.0390E+003
 852.00  1.0526E+003
 852.50  1.0605E+003
 853.00  1.0575E+003
 853.50  1.0541E+003
 854.00  1.0515E+003
 854.50  1.0448E+003
 855.00  1.0407E+003
 855.50  1.0349E+003
 856.00  1.0292E+003
 856.50  1.0225E+003
 857.00  1.0179E+003
 857.50  1.0190E+003
 858.00  1.0180E+003
 858.50  1.0329E+003
 859.00  1.0434E+003
 859.50  1.0403E+003
 860.00  1.0351E+003
 860.50  1.0240E+003
 861.00  1.0164E+003
 861.50  1.0156E+003
 862.00  1.0214E+003
 862.50  1.0209E+003
 863.00  1.0244E+003
 863.50  1.0355E+003
 864.00  1.0523E+003
 864.50  1.0649E+003
 865.00  1.0625E+003
 865.50  1.0550E+003
 866.00  1.0462E+003
 866.50  1.0449E+003
 867.00  1.0545E+003
 867.50  1.0578E+003
 868.00  1.0423E+003
 868.50  1.0250E+003
 869.00  1.0110E+003
 869.50  1.0086E+003
 870.00  1.0236E+003
 870.50  1.0355E+003
 871.00  1.0425E+003
 871.50  1.0433E+003
 872.00  1.0327E+003
 872.50  1.0335E+003
 873.00  1.0297E+003
 873.50  1.0208E+003
 874.00  1.0147E+003
 874.50  1.0040E+003
 875.00  1.0055E+003
 875.50  1.0140E+003
 876.00  1.0181E+003
 876.50  1.0210E+003
 877.00  1.0300E+003
 877.50  1.0297E+003
 878.00  1.0334E+003
 878.50  1.0292E+003
 879.00  1.0143E+003
 879.50  1.0090E+003
 880.00  1.0147E+003
 880.50  1.0139E+003
 881.00  1.0157E+003
 881.50  1.0208E+003
 882.00  1.0232E+003
 882.50  1.0339E+003
 883.00  1.0384E+003
 883.50  1.0331E+003
 884.00  1.0187E+003
 884.50  1.0108E+003
 885.00  1.0135E+003
 885.50  1.0158E+003
 886.00  1.0261E+003
 886.50  1.0304E+003
 887.00  1.0316E+003
 887.50  1.0288E+003
 888.00  1.0172E+003
 888.50  1.0058E+003
 889.00  9.9654E+002
 889.50  9.9646E+002
 890.00  1.0045E+003
 890.50  1.0131E+003
 891.00  1.0134E+003
 891.50  1.0127E+003
 892.00  1.0143E+003
 892.50  1.0208E+003
 893.00  1.0333E+003
 893.50  1.0424E+003
 894.00  1.0390E+003
 894.50  1.0306E+003
 895.00  1.0246E+003
 895.50  1.0406E+003
 896.00  1.0632E+003
 896.50  1.0711E+003
 897.00  1.0621E+003
 897.50  1.0428E+003
 898.00  1.0238E+003
 898.50  1.0248E+003
 899.00  1.0245E+003
 899.50  1.0082E+003
 900.00  9.9825E+002
 900.50  9.8368E+002
 901.00  9.9140E+002
 901.50  1.0087E+003
 902.00  1.0255E+003
 902.50  1.0418E+003
 903.00  1.0455E+003
 903.50  1.0532E+003
 904.00  1.0629E+003
 904.50  1.0727E+003
 905.00  1.0776E+003
 905.50  1.0683E+003
 906.00  1.0464E+003
 906.50  1.0157E+003
 907.00  9.8604E+002
 907.50  9.7365E+002
 908.00  9.8321E+002
 908.50  1.0116E+003
 909.00  1.0272E+003
 909.50  1.0333E+003
 910.00  1.0363E+003
 910.50  1.0368E+003
 911.00  1.0430E+003
 911.50  1.0508E+003
 912.00  1.0490E+003
 912.50  1.0466E+003
 913.00  1.0422E+003
 913.50  1.0247E+003
 914.00  1.0104E+003
 914.50  1.0137E+003
 915.00  1.0221E+003
 915.50  1.0385E+003
 916.00  1.0386E+003
 916.50  1.0267E+003
 917.00  1.0111E+003
 917.50  1.0018E+003
 918.00  1.0001E+003
 918.50  1.0017E+003
 919.00  1.0108E+003
 919.50  1.0188E+003
 920.00  1.0262E+003
 920.50  1.0323E+003
 921.00  1.0346E+003
 921.50  1.0411E+003
 922.00  1.0431E+003
 922.50  1.0449E+003
 923.00  1.0388E+003
 923.50  1.0277E+003
 924.00  1.0276E+003
 924.50  1.0285E+003
 925.00  1.0248E+003
 925.50  1.0195E+003
 926.00  1.0031E+003
 926.50  9.9060E+002
 927.00  9.9444E+002
 927.50  9.9901E+002
 928.00  9.9758E+002
 928.50  9.9041E+002
 929.00  9.7795E+002
 929.50  9.8360E+002
 930.00  9.9683E+002
 930.50  1.0153E+003
 931.00  1.0277E+003
 931.50  1.0347E+003
 932.00  1.0361E+003
 932.50  1.0339E+003
 933.00  1.0353E+003
 933.50  1.0257E+003
 934.00  1.0133E+003
 934.50  1.0049E+003
 935.00  1.0053E+003
 935.50  1.0138E+003
 936.00  1.0279E+003
 936.50  1.0458E+003
 937.00  1.0525E+003
 937.50  1.0489E+003
 938.00  1.0387E+003
 938.50  1.0155E+003
 939.00  9.9972E+002
 939.50  9.9898E+002
 940.00  1.0011E+003
 940.50  1.0080E+003
 941.00  1.0128E+003
 941.50  1.0119E+003
 942.00  1.0160E+003
 942.50  1.0117E+003
 943.00  1.0067E+003
 943.50  9.9322E+002
 944.00  9.8961E+002
 944.50  9.9296E+002
 945.00  9.9379E+002
 945.50  9.9974E+002
 946.00  9.9601E+002
 946.50  9.9849E+002
 947.00  1.0032E+003
 947.50  1.0036E+003
 948.00  1.0049E+003
 948.50  9.9118E+002
 949.00  9.8406E+002
 949.50  9.8934E+002
 950.00  9.9971E+002
 950.50  1.0135E+003
 951.00  1.0229E+003
 951.50  1.0144E+003
 952.00  1.0210E+003
 952.50  1.0252E+003
 953.00  1.0234E+003
 953.50  1.0199E+003
 954.00  1.0081E+003
 954.50  1.0026E+003
 955.00  1.0063E+003
 955.50  1.0197E+003
 956.00  1.0195E+003
 956.50  1.0099E+003
 957.00  9.9592E+002
 957.50  9.8235E+002
 958.00  9.9028E+002
 958.50  1.0049E+003
 959.00  1.0155E+003
 959.50  1.0291E+003
 960.00  1.0328E+003
 960.50  1.0412E+003
 961.00  1.0476E+003
 961.50  1.0388E+003
 962.00  1.0366E+003
 962.50  1.0287E+003
 963.00  1.0124E+003
 963.50  9.9191E+002
 964.00  9.7738E+002
 964.50  9.8648E+002
 965.00  1.0110E+003
 965.50  1.0411E+003
 966.00  1.0485E+003
 966.50  1.0466E+003
 967.00  1.0407E+003
 967.50  1.0339E+003
 968.00  1.0227E+003
 968.50  1.0031E+003
 969.00  9.8638E+002
 969.50  9.8287E+002
 970.00  9.8837E+002
 970.50  9.9993E+002
 971.00  1.0050E+003
 971.50  1.0053E+003
 972.00  1.0051E+003
 972.50  1.0180E+003
 973.00  1.0276E+003
 973.50  1.0337E+003
 974.00  1.0329E+003
 974.50  1.0300E+003
 975.00  1.0269E+003
 975.50  1.0224E+003
 976.00  1.0109E+003
 976.50  1.0052E+003
 977.00  1.0148E+003
 977.50  1.0293E+003
 978.00  1.0332E+003
 978.50  1.0216E+003
 979.00  1.0028E+003
 979.50  9.9782E+002
 980.00  9.9502E+002
 980.50  1.0010E+003
 981.00  1.0122E+003
 981.50  1.0150E+003
 982.00  1.0162E+003
 982.50  1.0083E+003
 983.00  1.0005E+003
 983.50  9.9455E+002
 984.00  1.0010E+003
 984.50  1.0056E+003
 985.00  1.0066E+003
 985.50  1.0182E+003
 986.00  1.0174E+003
 986.50  1.0135E+003
 987.00  1.0095E+003
 987.50  1.0101E+003
 988.00  1.0145E+003
 988.50  1.0091E+003
 989.00  9.9850E+002
 989.50  9.9636E+002
 990.00  1.0015E+003
 990.50  1.0151E+003
 991.00  1.0271E+003
 991.50  1.0214E+003
 992.00  1.0133E+003
 992.50  1.0044E+003
 993.00  9.8989E+002
 993.50  9.9196E+002
 994.00  9.9651E+002
 994.50  1.0028E+003
 995.00  1.0085E+003
 995.50  1.0143E+003
 996.00  1.0169E+003
 996.50  1.0212E+003
 997.00  1.0392E+003
 997.50  1.0342E+003
 998.00  1.0186E+003
 998.50  1.0004E+003
 999.00  9.8340E+002
 999.50  9.8131E+002
1000.00  1.0001E+003
1000.50  1.0056E+003
1001.00  1.0200E+003
1001.50  1.0189E+003
1002.00  1.0203E+003
1002.50  1.0089E+003
1003.00  9.9816E+002
1003.50  9.8120E+002
1004.00  9.7119E+002
1004.50  9.6919E+002
1005.00  9.7434E+002
1005.50  9.9358E+002
1006.00  9.9715E+002
1006.50  1.0036E+003
1007.00  9.9441E+002
1007.50  9.8905E+002
1008.00  9.8718E+002
1008.50  1.0004E+003
1009.00  1.0076E+003
1009.50  1.0003E+003
1010.00  9.9210E+002
1010.50  9.8932E+002
1011.00  9.9100E+002
1011.50  1.0020E+003
1012.00  1.0157E+003
1012.50  1.0611E+003
1013.00  1.1539E+003
1013.50  1.2213E+003
1014.00  1.2358E+003
1014.50  1.1733E+003
1015.00  1.0999E+003
1015.50  1.0614E+003
1016.00  1.0429E+003
1016.50  1.0281E+003
1017.00  1.0066E+003
1017.50  9.9197E+002
1018.00  9.9231E+002
1018.50  1.0040E+003
1019.00  1.0173E+003
1019.50  1.0279E+003
1020.00  1.0286E+003
1020.50  1.0338E+003
1021.00  1.0343E+003
1021.50  1.0197E+003
1022.00  1.0016E+003
1022.50  9.9495E+002
1023.00  9.9556E+002
1023.50  9.9964E+002
1024.00  9.9058E+002
1024.50  9.8844E+002
1025.00  9.8361E+002
1025.50  9.8377E+002
1026.00  9.8544E+002
1026.50  1.0138E+003
1027.00  1.0243E+003
1027.50  1.0282E+003
1028.00  1.0163E+003
1028.50  1.0014E+003
1029.00  1.0103E+003
1029.50  1.0208E+003
1030.00  1.0328E+003
1030.50  1.0402E+003
1031.00  1.0380E+003
1031.50  1.0297E+003
1032.00  1.0226E+003
1032.50  1.0066E+003
1033.00  9.9005E+002
1033.50  9.7550E+002
1034.00  9.8115E+002
1034.50  1.0029E+003
1035.00  1.0143E+003
1035.50  1.0155E+003
1036.00  1.0017E+003
1036.50  9.9332E+002
1037.00  9.9378E+002
1037.50  9.9319E+002
1038.00  1.0009E+003
1038.50  9.9928E+002
1039.00  1.0108E+003
1039.50  1.0148E+003
1040.00  1.0119E+003
1040.50  1.0007E+003
1041.00  9.8956E+002
1041.50  9.9676E+002
1042.00  1.0148E+003
1042.50  1.0307E+003
1043.00  1.0300E+003
1043.50  1.0228E+003
1044.00  1.0231E+003
1044.50  1.0240E+003
1045.00  1.0174E+003
1045.50  9.9786E+002
1046.00  9.8783E+002
1046.50  9.7257E+002
1047.00  9.8751E+002
1047.50  9.9430E+002
1048.00  9.9408E+002
1048.50  9.8807E+002
1049.00  9.7287E+002
1049.50  9.7020E+002
1050.00  9.7525E+002
1050.50  9.8075E+002
1051.00  9.8000E+002
1051.50  9.8511E+002
1052.00  9.8614E+002
1052.50  9.9394E+002
1053.00  9.9424E+002
1053.50  1.0042E+003
1054.00  1.0139E+003
1054.50  1.0318E+003
1055.00  1.0372E+003
1055.50  1.0234E+003
1056.00  1.0085E+003
1056.50  9.9336E+002
1057.00  9.8607E+002
1057.50  9.8420E+002
1058.00  9.9349E+002
1058.50  1.0122E+003
1059.00  1.0366E+003
1059.50  1.0351E+003
1060.00  1.0212E+003
1060.50  1.0058E+003
1061.00  1.0048E+003
1061.50  1.0248E+003
1062.00  1.0320E+003
1062.50  1.0376E+003
1063.00  1.0245E+003
1063.50  1.0166E+003
1064.00  9.9670E+002
1064.50  9.9195E+002
1065.00  1.0010E+003
1065.50  1.0072E+003
1066.00  1.0192E+003
1066.50  1.0104E+003
1067.00  9.9317E+002
1067.50  9.8328E+002
1068.00  9.7875E+002
1068.50  9.9346E+002
1069.00  1.0057E+003
1069.50  1.0111E+003
1070.00  1.0196E+003
1070.50  1.0330E+003
1071.00  1.0410E+003
1071.50  1.0297E+003
1072.00  1.0224E+003
1072.50  1.0107E+003
1073.00  1.0086E+003
1073.50  9.9595E+002
1074.00  9.9094E+002
1074.50  9.9271E+002
1075.00  9.9600E+002
1075.50  9.9390E+002
1076.00  9.8110E+002
1076.50  9.8147E+002
1077.00  9.8800E+002
1077.50  1.0038E+003
1078.00  1.0160E+003
1078.50  1.0187E+003
1079.00  1.0263E+003
1079.50  1.0234E+003
1080.00  1.0220E+003
1080.50  1.8523E+002
