" File: Users\media\Desktop\5.20 spectrum\n45g.S
" SCOPE->  Wave:699.31nm  Pix:1050  Val:1077.600  Time:500ms  Avg:1  Sm:1  Sg:0  Tc:off  SNAP  Xt:3  Ch:1  Xtrig
 191.00  1.0338E+003
 191.50  1.0430E+003
 192.00  1.0367E+003
 192.50  1.0147E+003
 193.00  1.0098E+003
 193.50  9.9458E+002
 194.00  9.9043E+002
 194.50  9.6560E+002
 195.00  1.0045E+003
 195.50  9.8365E+002
 196.00  9.7505E+002
 196.50  9.7663E+002
 197.00  1.0040E+003
 197.50  1.0415E+003
 198.00  1.0499E+003
 198.50  1.0428E+003
 199.00  1.0531E+003
 199.50  1.0422E+003
 200.00  1.0343E+003
 200.50  1.0713E+003
 201.00  1.0814E+003
 201.50  1.0907E+003
 202.00  1.0498E+003
 202.50  1.0212E+003
 203.00  9.9889E+002
 203.50  9.8695E+002
 204.00  9.8169E+002
 204.50  9.7945E+002
 205.00  9.8633E+002
 205.50  1.0001E+003
 206.00  1.0042E+003
 206.50  1.0005E+003
 207.00  1.0100E+003
 207.50  1.0091E+003
 208.00  9.9732E+002
 208.50  9.9624E+002
 209.00  1.0049E+003
 209.50  1.0074E+003
 210.00  1.0113E+003
 210.50  1.0159E+003
 211.00  1.0131E+003
 211.50  1.0037E+003
 212.00  9.9671E+002
 212.50  9.9696E+002
 213.00  9.9780E+002
 213.50  1.0058E+003
 214.00  1.0204E+003
 214.50  1.0293E+003
 215.00  1.0285E+003
 215.50  1.0284E+003
 216.00  1.0244E+003
 216.50  1.0175E+003
 217.00  1.0129E+003
 217.50  1.0124E+003
 218.00  1.0104E+003
 218.50  1.0040E+003
 219.00  1.0019E+003
 219.50  1.0102E+003
 220.00  1.0196E+003
 220.50  1.0253E+003
 221.00  1.0354E+003
 221.50  1.0372E+003
 222.00  1.0248E+003
 222.50  1.0066E+003
 223.00  9.9466E+002
 223.50  9.8440E+002
 224.00  9.8343E+002
 224.50  9.9623E+002
 225.00  1.0172E+003
 225.50  1.0359E+003
 226.00  1.0446E+003
 226.50  1.0474E+003
 227.00  1.0395E+003
 227.50  1.0192E+003
 228.00  1.0022E+003
 228.50  9.9781E+002
 229.00  1.0058E+003
 229.50  1.0162E+003
 230.00  1.0268E+003
 230.50  1.0316E+003
 231.00  1.0358E+003
 231.50  1.0378E+003
 232.00  1.0406E+003
 232.50  1.0482E+003
 233.00  1.0537E+003
 233.50  1.0528E+003
 234.00  1.0487E+003
 234.50  1.0483E+003
 235.00  1.0420E+003
 235.50  1.0432E+003
 236.00  1.0462E+003
 236.50  1.0473E+003
 237.00  1.0450E+003
 237.50  1.0429E+003
 238.00  1.0381E+003
 238.50  1.0438E+003
 239.00  1.0547E+003
 239.50  1.0581E+003
 240.00  1.0580E+003
 240.50  1.0569E+003
 241.00  1.0419E+003
 241.50  1.0174E+003
 242.00  1.0057E+003
 242.50  1.0091E+003
 243.00  1.0035E+003
 243.50  1.0144E+003
 244.00  1.0243E+003
 244.50  1.0283E+003
 245.00  1.0200E+003
 245.50  1.0134E+003
 246.00  1.0105E+003
 246.50  1.0057E+003
 247.00  9.9830E+002
 247.50  9.9521E+002
 248.00  9.9868E+002
 248.50  1.0006E+003
 249.00  1.0004E+003
 249.50  1.0080E+003
 250.00  1.0157E+003
 250.50  1.0195E+003
 251.00  1.0168E+003
 251.50  1.0162E+003
 252.00  1.0153E+003
 252.50  1.0096E+003
 253.00  1.0085E+003
 253.50  1.0134E+003
 254.00  1.0189E+003
 254.50  1.0216E+003
 255.00  1.0277E+003
 255.50  1.0305E+003
 256.00  1.0219E+003
 256.50  1.0137E+003
 257.00  1.0148E+003
 257.50  1.0183E+003
 258.00  1.0165E+003
 258.50  1.0187E+003
 259.00  1.0197E+003
 259.50  1.0246E+003
 260.00  1.0241E+003
 260.50  1.0262E+003
 261.00  1.0271E+003
 261.50  1.0282E+003
 262.00  1.0223E+003
 262.50  1.0174E+003
 263.00  1.0157E+003
 263.50  1.0144E+003
 264.00  1.0138E+003
 264.50  1.0177E+003
 265.00  1.0255E+003
 265.50  1.0297E+003
 266.00  1.0270E+003
 266.50  1.0230E+003
 267.00  1.0179E+003
 267.50  1.0068E+003
 268.00  9.9136E+002
 268.50  9.8569E+002
 269.00  1.0016E+003
 269.50  1.0149E+003
 270.00  1.0231E+003
 270.50  1.0345E+003
 271.00  1.0470E+003
 271.50  1.0493E+003
 272.00  1.0414E+003
 272.50  1.0307E+003
 273.00  1.0174E+003
 273.50  1.0014E+003
 274.00  9.8528E+002
 274.50  9.7657E+002
 275.00  9.8519E+002
 275.50  9.9605E+002
 276.00  1.0088E+003
 276.50  1.0225E+003
 277.00  1.0343E+003
 277.50  1.0322E+003
 278.00  1.0117E+003
 278.50  1.0040E+003
 279.00  9.9867E+002
 279.50  9.9433E+002
 280.00  9.8751E+002
 280.50  9.8828E+002
 281.00  9.8718E+002
 281.50  9.8428E+002
 282.00  9.8288E+002
 282.50  9.8716E+002
 283.00  9.9644E+002
 283.50  1.0033E+003
 284.00  1.0041E+003
 284.50  1.0038E+003
 285.00  1.0076E+003
 285.50  1.0097E+003
 286.00  1.0193E+003
 286.50  1.0305E+003
 287.00  1.0410E+003
 287.50  1.0372E+003
 288.00  1.0395E+003
 288.50  1.0538E+003
 289.00  1.0670E+003
 289.50  1.0603E+003
 290.00  1.0552E+003
 290.50  1.0489E+003
 291.00  1.0317E+003
 291.50  1.0136E+003
 292.00  1.0077E+003
 292.50  1.0075E+003
 293.00  1.0081E+003
 293.50  1.0067E+003
 294.00  1.0001E+003
 294.50  9.9479E+002
 295.00  9.9400E+002
 295.50  9.9455E+002
 296.00  9.9747E+002
 296.50  1.0038E+003
 297.00  1.0116E+003
 297.50  1.0164E+003
 298.00  1.0240E+003
 298.50  1.0254E+003
 299.00  1.0307E+003
 299.50  1.0267E+003
 300.00  1.0162E+003
 300.50  1.0024E+003
 301.00  9.8630E+002
 301.50  9.7600E+002
 302.00  9.7971E+002
 302.50  9.9239E+002
 303.00  1.0044E+003
 303.50  1.0181E+003
 304.00  1.0267E+003
 304.50  1.0246E+003
 305.00  1.0185E+003
 305.50  1.0155E+003
 306.00  1.0136E+003
 306.50  1.0083E+003
 307.00  1.0065E+003
 307.50  1.0057E+003
 308.00  1.0025E+003
 308.50  1.0002E+003
 309.00  1.0020E+003
 309.50  1.0040E+003
 310.00  1.0017E+003
 310.50  1.0071E+003
 311.00  1.0153E+003
 311.50  1.0210E+003
 312.00  1.0175E+003
 312.50  1.0145E+003
 313.00  1.0118E+003
 313.50  1.0073E+003
 314.00  1.0056E+003
 314.50  1.0115E+003
 315.00  1.0160E+003
 315.50  1.0176E+003
 316.00  1.0168E+003
 316.50  1.0126E+003
 317.00  1.0070E+003
 317.50  1.0062E+003
 318.00  1.0075E+003
 318.50  1.0055E+003
 319.00  1.0044E+003
 319.50  1.0010E+003
 320.00  1.0036E+003
 320.50  1.0165E+003
 321.00  1.0332E+003
 321.50  1.0441E+003
 322.00  1.0573E+003
 322.50  1.0617E+003
 323.00  1.0479E+003
 323.50  1.0258E+003
 324.00  1.0146E+003
 324.50  1.0116E+003
 325.00  1.0161E+003
 325.50  1.0215E+003
 326.00  1.0330E+003
 326.50  1.0402E+003
 327.00  1.0360E+003
 327.50  1.0288E+003
 328.00  1.0251E+003
 328.50  1.0253E+003
 329.00  1.0280E+003
 329.50  1.0340E+003
 330.00  1.0391E+003
 330.50  1.0397E+003
 331.00  1.0375E+003
 331.50  1.0310E+003
 332.00  1.0217E+003
 332.50  1.0133E+003
 333.00  1.0059E+003
 333.50  9.9948E+002
 334.00  9.9617E+002
 334.50  1.0009E+003
 335.00  1.0055E+003
 335.50  1.0084E+003
 336.00  1.0105E+003
 336.50  1.0107E+003
 337.00  1.0054E+003
 337.50  1.0052E+003
 338.00  1.0118E+003
 338.50  1.0201E+003
 339.00  1.0190E+003
 339.50  1.0260E+003
 340.00  1.0351E+003
 340.50  1.0339E+003
 341.00  1.0228E+003
 341.50  1.0238E+003
 342.00  1.0159E+003
 342.50  1.0046E+003
 343.00  9.9292E+002
 343.50  9.8888E+002
 344.00  9.9397E+002
 344.50  1.0035E+003
 345.00  1.0126E+003
 345.50  1.0231E+003
 346.00  1.0302E+003
 346.50  1.0259E+003
 347.00  1.0221E+003
 347.50  1.0192E+003
 348.00  1.0192E+003
 348.50  1.0312E+003
 349.00  1.0513E+003
 349.50  1.0685E+003
 350.00  1.0799E+003
 350.50  1.0841E+003
 351.00  1.0769E+003
 351.50  1.0617E+003
 352.00  1.0460E+003
 352.50  1.0336E+003
 353.00  1.0249E+003
 353.50  1.0206E+003
 354.00  1.0179E+003
 354.50  1.0164E+003
 355.00  1.0185E+003
 355.50  1.0265E+003
 356.00  1.0308E+003
 356.50  1.0302E+003
 357.00  1.0342E+003
 357.50  1.0373E+003
 358.00  1.0412E+003
 358.50  1.0536E+003
 359.00  1.0643E+003
 359.50  1.0658E+003
 360.00  1.0668E+003
 360.50  1.0570E+003
 361.00  1.0408E+003
 361.50  1.0267E+003
 362.00  1.0254E+003
 362.50  1.0263E+003
 363.00  1.0313E+003
 363.50  1.0341E+003
 364.00  1.0406E+003
 364.50  1.0389E+003
 365.00  1.0334E+003
 365.50  1.0358E+003
 366.00  1.0440E+003
 366.50  1.0429E+003
 367.00  1.0422E+003
 367.50  1.0401E+003
 368.00  1.0348E+003
 368.50  1.0302E+003
 369.00  1.0368E+003
 369.50  1.0427E+003
 370.00  1.0467E+003
 370.50  1.0506E+003
 371.00  1.0534E+003
 371.50  1.0489E+003
 372.00  1.0464E+003
 372.50  1.0544E+003
 373.00  1.0641E+003
 373.50  1.0691E+003
 374.00  1.0749E+003
 374.50  1.0809E+003
 375.00  1.0775E+003
 375.50  1.0681E+003
 376.00  1.0592E+003
 376.50  1.0515E+003
 377.00  1.0486E+003
 377.50  1.0500E+003
 378.00  1.0514E+003
 378.50  1.0524E+003
 379.00  1.0521E+003
 379.50  1.0408E+003
 380.00  1.0266E+003
 380.50  1.0185E+003
 381.00  1.0114E+003
 381.50  1.0051E+003
 382.00  1.0118E+003
 382.50  1.0179E+003
 383.00  1.0136E+003
 383.50  1.0079E+003
 384.00  1.0070E+003
 384.50  1.0082E+003
 385.00  1.0076E+003
 385.50  1.0097E+003
 386.00  1.0164E+003
 386.50  1.0206E+003
 387.00  1.0216E+003
 387.50  1.0284E+003
 388.00  1.0351E+003
 388.50  1.0351E+003
 389.00  1.0324E+003
 389.50  1.0254E+003
 390.00  1.0182E+003
 390.50  1.0144E+003
 391.00  1.0162E+003
 391.50  1.0183E+003
 392.00  1.0183E+003
 392.50  1.0135E+003
 393.00  1.0081E+003
 393.50  1.0003E+003
 394.00  1.0068E+003
 394.50  1.0155E+003
 395.00  1.0277E+003
 395.50  1.0368E+003
 396.00  1.0397E+003
 396.50  1.0369E+003
 397.00  1.0326E+003
 397.50  1.0255E+003
 398.00  1.0277E+003
 398.50  1.0350E+003
 399.00  1.0332E+003
 399.50  1.0298E+003
 400.00  1.0214E+003
 400.50  1.0134E+003
 401.00  1.0057E+003
 401.50  1.0070E+003
 402.00  1.0178E+003
 402.50  1.0372E+003
 403.00  1.0556E+003
 403.50  1.0814E+003
 404.00  1.1048E+003
 404.50  1.1091E+003
 405.00  1.1078E+003
 405.50  1.0925E+003
 406.00  1.0770E+003
 406.50  1.0631E+003
 407.00  1.0655E+003
 407.50  1.0646E+003
 408.00  1.0673E+003
 408.50  1.0603E+003
 409.00  1.0468E+003
 409.50  1.0359E+003
 410.00  1.0306E+003
 410.50  1.0361E+003
 411.00  1.0489E+003
 411.50  1.0607E+003
 412.00  1.0675E+003
 412.50  1.0705E+003
 413.00  1.0671E+003
 413.50  1.0672E+003
 414.00  1.0778E+003
 414.50  1.1012E+003
 415.00  1.1314E+003
 415.50  1.1599E+003
 416.00  1.1808E+003
 416.50  1.1791E+003
 417.00  1.1653E+003
 417.50  1.1489E+003
 418.00  1.1366E+003
 418.50  1.1273E+003
 419.00  1.1256E+003
 419.50  1.1290E+003
 420.00  1.1456E+003
 420.50  1.1640E+003
 421.00  1.1772E+003
 421.50  1.1988E+003
 422.00  1.2283E+003
 422.50  1.2466E+003
 423.00  1.2739E+003
 423.50  1.3049E+003
 424.00  1.3373E+003
 424.50  1.3546E+003
 425.00  1.3729E+003
 425.50  1.3870E+003
 426.00  1.4012E+003
 426.50  1.4141E+003
 427.00  1.4292E+003
 427.50  1.4441E+003
 428.00  1.4596E+003
 428.50  1.4799E+003
 429.00  1.4930E+003
 429.50  1.5088E+003
 430.00  1.5332E+003
 430.50  1.5612E+003
 431.00  1.5844E+003
 431.50  1.6110E+003
 432.00  1.6449E+003
 432.50  1.6726E+003
 433.00  1.7121E+003
 433.50  1.8130E+003
 434.00  2.1919E+003
 434.50  2.8485E+003
 435.00  3.4004E+003
 435.50  3.6747E+003
 436.00  3.7237E+003
 436.50  3.4335E+003
 437.00  2.8511E+003
 437.50  2.3651E+003
 438.00  2.1249E+003
 438.50  2.0320E+003
 439.00  1.9959E+003
 439.50  1.9910E+003
 440.00  2.0119E+003
 440.50  2.0421E+003
 441.00  2.0571E+003
 441.50  2.0658E+003
 442.00  2.0733E+003
 442.50  2.0788E+003
 443.00  2.0882E+003
 443.50  2.1070E+003
 444.00  2.1322E+003
 444.50  2.1681E+003
 445.00  2.1971E+003
 445.50  2.2087E+003
 446.00  2.2182E+003
 446.50  2.2235E+003
 447.00  2.2196E+003
 447.50  2.2240E+003
 448.00  2.2406E+003
 448.50  2.2556E+003
 449.00  2.2694E+003
 449.50  2.2727E+003
 450.00  2.2744E+003
 450.50  2.2770E+003
 451.00  2.2758E+003
 451.50  2.2711E+003
 452.00  2.2698E+003
 452.50  2.2519E+003
 453.00  2.2394E+003
 453.50  2.2426E+003
 454.00  2.2451E+003
 454.50  2.2512E+003
 455.00  2.2686E+003
 455.50  2.2681E+003
 456.00  2.2639E+003
 456.50  2.2719E+003
 457.00  2.2652E+003
 457.50  2.2465E+003
 458.00  2.2526E+003
 458.50  2.2472E+003
 459.00  2.2160E+003
 459.50  2.2033E+003
 460.00  2.1952E+003
 460.50  2.1683E+003
 461.00  2.1558E+003
 461.50  2.1547E+003
 462.00  2.1369E+003
 462.50  2.1254E+003
 463.00  2.1307E+003
 463.50  2.1323E+003
 464.00  2.1338E+003
 464.50  2.1380E+003
 465.00  2.1375E+003
 465.50  2.1300E+003
 466.00  2.1252E+003
 466.50  2.1295E+003
 467.00  2.1424E+003
 467.50  2.1561E+003
 468.00  2.1643E+003
 468.50  2.1643E+003
 469.00  2.1553E+003
 469.50  2.1348E+003
 470.00  2.1131E+003
 470.50  2.1038E+003
 471.00  2.0961E+003
 471.50  2.0826E+003
 472.00  2.0724E+003
 472.50  2.0608E+003
 473.00  2.0456E+003
 473.50  2.0280E+003
 474.00  2.0181E+003
 474.50  2.0185E+003
 475.00  2.0065E+003
 475.50  1.9826E+003
 476.00  1.9777E+003
 476.50  1.9704E+003
 477.00  1.9595E+003
 477.50  1.9565E+003
 478.00  1.9626E+003
 478.50  1.9590E+003
 479.00  1.9583E+003
 479.50  1.9534E+003
 480.00  1.9618E+003
 480.50  1.9746E+003
 481.00  1.9915E+003
 481.50  2.0332E+003
 482.00  2.1086E+003
 482.50  2.1870E+003
 483.00  2.2774E+003
 483.50  2.3922E+003
 484.00  2.5159E+003
 484.50  2.6506E+003
 485.00  2.8011E+003
 485.50  2.9457E+003
 486.00  3.0595E+003
 486.50  3.1330E+003
 487.00  3.1678E+003
 487.50  3.1724E+003
 488.00  3.1529E+003
 488.50  3.1235E+003
 489.00  3.0804E+003
 489.50  3.0247E+003
 490.00  2.9609E+003
 490.50  2.8831E+003
 491.00  2.7975E+003
 491.50  2.7147E+003
 492.00  2.6342E+003
 492.50  2.5631E+003
 493.00  2.4992E+003
 493.50  2.4329E+003
 494.00  2.3708E+003
 494.50  2.3084E+003
 495.00  2.2538E+003
 495.50  2.2137E+003
 496.00  2.1827E+003
 496.50  2.1494E+003
 497.00  2.1151E+003
 497.50  2.0722E+003
 498.00  2.0096E+003
 498.50  1.9303E+003
 499.00  1.8460E+003
 499.50  1.7534E+003
 500.00  1.6669E+003
 500.50  1.5994E+003
 501.00  1.5446E+003
 501.50  1.4991E+003
 502.00  1.4621E+003
 502.50  1.4287E+003
 503.00  1.4004E+003
 503.50  1.3794E+003
 504.00  1.3689E+003
 504.50  1.3564E+003
 505.00  1.3364E+003
 505.50  1.3188E+003
 506.00  1.3129E+003
 506.50  1.2893E+003
 507.00  1.2752E+003
 507.50  1.2739E+003
 508.00  1.2753E+003
 508.50  1.2663E+003
 509.00  1.2644E+003
 509.50  1.2521E+003
 510.00  1.2346E+003
 510.50  1.2142E+003
 511.00  1.2000E+003
 511.50  1.1946E+003
 512.00  1.1949E+003
 512.50  1.1959E+003
 513.00  1.1932E+003
 513.50  1.1858E+003
 514.00  1.1829E+003
 514.50  1.1813E+003
 515.00  1.1769E+003
 515.50  1.1821E+003
 516.00  1.1865E+003
 516.50  1.1843E+003
 517.00  1.1765E+003
 517.50  1.1825E+003
 518.00  1.1843E+003
 518.50  1.1792E+003
 519.00  1.1631E+003
 519.50  1.1506E+003
 520.00  1.1314E+003
 520.50  1.1115E+003
 521.00  1.0991E+003
 521.50  1.1016E+003
 522.00  1.1008E+003
 522.50  1.0944E+003
 523.00  1.0962E+003
 523.50  1.0958E+003
 524.00  1.0879E+003
 524.50  1.0954E+003
 525.00  1.1077E+003
 525.50  1.0999E+003
 526.00  1.0953E+003
 526.50  1.0960E+003
 527.00  1.0866E+003
 527.50  1.0805E+003
 528.00  1.0927E+003
 528.50  1.0972E+003
 529.00  1.0961E+003
 529.50  1.0918E+003
 530.00  1.0815E+003
 530.50  1.0728E+003
 531.00  1.0721E+003
 531.50  1.0760E+003
 532.00  1.0866E+003
 532.50  1.1031E+003
 533.00  1.1162E+003
 533.50  1.1262E+003
 534.00  1.1368E+003
 534.50  1.1462E+003
 535.00  1.1525E+003
 535.50  1.1625E+003
 536.00  1.1790E+003
 536.50  1.2092E+003
 537.00  1.2548E+003
 537.50  1.3038E+003
 538.00  1.3574E+003
 538.50  1.4155E+003
 539.00  1.4877E+003
 539.50  1.5799E+003
 540.00  1.7363E+003
 540.50  1.9900E+003
 541.00  2.3031E+003
 541.50  2.6223E+003
 542.00  2.9153E+003
 542.50  3.1032E+003
 543.00  3.1405E+003
 543.50  3.0652E+003
 544.00  3.0191E+003
 544.50  3.0834E+003
 545.00  3.0721E+003
 545.50  2.9460E+003
 546.00  2.7416E+003
 546.50  2.4134E+003
 547.00  2.0234E+003
 547.50  1.7632E+003
 548.00  1.6428E+003
 548.50  1.5971E+003
 549.00  1.5714E+003
 549.50  1.5363E+003
 550.00  1.5028E+003
 550.50  1.4608E+003
 551.00  1.4180E+003
 551.50  1.3717E+003
 552.00  1.3330E+003
 552.50  1.2805E+003
 553.00  1.2362E+003
 553.50  1.1987E+003
 554.00  1.1728E+003
 554.50  1.1389E+003
 555.00  1.1094E+003
 555.50  1.0906E+003
 556.00  1.0778E+003
 556.50  1.0674E+003
 557.00  1.0641E+003
 557.50  1.0633E+003
 558.00  1.0561E+003
 558.50  1.0477E+003
 559.00  1.0504E+003
 559.50  1.0572E+003
 560.00  1.0636E+003
 560.50  1.0668E+003
 561.00  1.0615E+003
 561.50  1.0479E+003
 562.00  1.0385E+003
 562.50  1.0349E+003
 563.00  1.0412E+003
 563.50  1.0598E+003
 564.00  1.0756E+003
 564.50  1.0778E+003
 565.00  1.0725E+003
 565.50  1.0675E+003
 566.00  1.0655E+003
 566.50  1.0708E+003
 567.00  1.0704E+003
 567.50  1.0733E+003
 568.00  1.0671E+003
 568.50  1.0538E+003
 569.00  1.0540E+003
 569.50  1.0660E+003
 570.00  1.0761E+003
 570.50  1.0840E+003
 571.00  1.0858E+003
 571.50  1.0803E+003
 572.00  1.0708E+003
 572.50  1.0694E+003
 573.00  1.0798E+003
 573.50  1.0893E+003
 574.00  1.1068E+003
 574.50  1.1306E+003
 575.00  1.1780E+003
 575.50  1.2445E+003
 576.00  1.2957E+003
 576.50  1.3330E+003
 577.00  1.3981E+003
 577.50  1.4932E+003
 578.00  1.5849E+003
 578.50  1.6998E+003
 579.00  1.8155E+003
 579.50  1.8597E+003
 580.00  1.8594E+003
 580.50  1.9052E+003
 581.00  1.9776E+003
 581.50  2.1117E+003
 582.00  2.3016E+003
 582.50  2.5021E+003
 583.00  2.6751E+003
 583.50  2.7717E+003
 584.00  2.7777E+003
 584.50  2.7351E+003
 585.00  2.7282E+003
 585.50  2.8450E+003
 586.00  3.0401E+003
 586.50  3.2049E+003
 587.00  3.2788E+003
 587.50  3.2154E+003
 588.00  3.0354E+003
 588.50  2.8353E+003
 589.00  2.6740E+003
 589.50  2.5575E+003
 590.00  2.4665E+003
 590.50  2.3957E+003
 591.00  2.3719E+003
 591.50  2.4130E+003
 592.00  2.4479E+003
 592.50  2.4365E+003
 593.00  2.3542E+003
 593.50  2.1855E+003
 594.00  1.9869E+003
 594.50  1.8156E+003
 595.00  1.7030E+003
 595.50  1.6555E+003
 596.00  1.6440E+003
 596.50  1.6635E+003
 597.00  1.7103E+003
 597.50  1.7818E+003
 598.00  1.8635E+003
 598.50  1.9186E+003
 599.00  1.9236E+003
 599.50  1.8678E+003
 600.00  1.7556E+003
 600.50  1.6405E+003
 601.00  1.5403E+003
 601.50  1.4742E+003
 602.00  1.4508E+003
 602.50  1.4524E+003
 603.00  1.4491E+003
 603.50  1.4720E+003
 604.00  1.4891E+003
 604.50  1.5157E+003
 605.00  1.5503E+003
 605.50  1.5937E+003
 606.00  1.6560E+003
 606.50  1.7517E+003
 607.00  1.9016E+003
 607.50  2.1190E+003
 608.00  2.4715E+003
 608.50  3.1904E+003
 609.00  4.7939E+003
 609.50  7.4543E+003
 610.00  1.0139E+004
 610.50  1.1867E+004
 611.00  1.2303E+004
 611.50  1.1177E+004
 612.00  9.0290E+003
 612.50  7.1231E+003
 613.00  5.9686E+003
 613.50  5.2868E+003
 614.00  4.7843E+003
 614.50  4.3116E+003
 615.00  3.8513E+003
 615.50  3.4460E+003
 616.00  3.1196E+003
 616.50  2.8991E+003
 617.00  2.7863E+003
 617.50  2.7454E+003
 618.00  2.7854E+003
 618.50  2.8862E+003
 619.00  2.9802E+003
 619.50  3.0363E+003
 620.00  3.0313E+003
 620.50  2.9641E+003
 621.00  2.8570E+003
 621.50  2.7353E+003
 622.00  2.6201E+003
 622.50  2.5235E+003
 623.00  2.4466E+003
 623.50  2.3764E+003
 624.00  2.3058E+003
 624.50  2.2264E+003
 625.00  2.1430E+003
 625.50  2.0680E+003
 626.00  2.0089E+003
 626.50  1.9736E+003
 627.00  1.9545E+003
 627.50  1.9491E+003
 628.00  1.9717E+003
 628.50  2.0504E+003
 629.00  2.2096E+003
 629.50  2.3886E+003
 630.00  2.4870E+003
 630.50  2.4624E+003
 631.00  2.3022E+003
 631.50  2.0323E+003
 632.00  1.7688E+003
 632.50  1.5755E+003
 633.00  1.4697E+003
 633.50  1.3932E+003
 634.00  1.3419E+003
 634.50  1.3074E+003
 635.00  1.2801E+003
 635.50  1.2570E+003
 636.00  1.2435E+003
 636.50  1.2340E+003
 637.00  1.2223E+003
 637.50  1.2177E+003
 638.00  1.2146E+003
 638.50  1.2128E+003
 639.00  1.2139E+003
 639.50  1.2126E+003
 640.00  1.2109E+003
 640.50  1.2110E+003
 641.00  1.2131E+003
 641.50  1.2193E+003
 642.00  1.2226E+003
 642.50  1.2230E+003
 643.00  1.2262E+003
 643.50  1.2321E+003
 644.00  1.2422E+003
 644.50  1.2515E+003
 645.00  1.2557E+003
 645.50  1.2517E+003
 646.00  1.2447E+003
 646.50  1.2423E+003
 647.00  1.2500E+003
 647.50  1.2561E+003
 648.00  1.2806E+003
 648.50  1.3332E+003
 649.00  1.3828E+003
 649.50  1.4205E+003
 650.00  1.4315E+003
 650.50  1.4025E+003
 651.00  1.3606E+003
 651.50  1.3180E+003
 652.00  1.2922E+003
 652.50  1.2813E+003
 653.00  1.2614E+003
 653.50  1.2394E+003
 654.00  1.2219E+003
 654.50  1.2089E+003
 655.00  1.1914E+003
 655.50  1.1768E+003
 656.00  1.1723E+003
 656.50  1.1714E+003
 657.00  1.1694E+003
 657.50  1.1679E+003
 658.00  1.1754E+003
 658.50  1.1821E+003
 659.00  1.1913E+003
 659.50  1.2060E+003
 660.00  1.2294E+003
 660.50  1.2502E+003
 661.00  1.2746E+003
 661.50  1.3063E+003
 662.00  1.3064E+003
 662.50  1.2898E+003
 663.00  1.2711E+003
 663.50  1.2440E+003
 664.00  1.2249E+003
 664.50  1.2208E+003
 665.00  1.2138E+003
 665.50  1.2173E+003
 666.00  1.2265E+003
 666.50  1.2443E+003
 667.00  1.2601E+003
 667.50  1.2602E+003
 668.00  1.2446E+003
 668.50  1.2263E+003
 669.00  1.2060E+003
 669.50  1.1957E+003
 670.00  1.1909E+003
 670.50  1.1810E+003
 671.00  1.1715E+003
 671.50  1.1619E+003
 672.00  1.1570E+003
 672.50  1.1514E+003
 673.00  1.1446E+003
 673.50  1.1458E+003
 674.00  1.1465E+003
 674.50  1.1501E+003
 675.00  1.1584E+003
 675.50  1.1683E+003
 676.00  1.1719E+003
 676.50  1.1679E+003
 677.00  1.1597E+003
 677.50  1.1574E+003
 678.00  1.1527E+003
 678.50  1.1536E+003
 679.00  1.1588E+003
 679.50  1.1550E+003
 680.00  1.1509E+003
 680.50  1.1413E+003
 681.00  1.1415E+003
 681.50  1.1462E+003
 682.00  1.1478E+003
 682.50  1.1418E+003
 683.00  1.1338E+003
 683.50  1.1230E+003
 684.00  1.1132E+003
 684.50  1.1156E+003
 685.00  1.1246E+003
 685.50  1.1462E+003
 686.00  1.1704E+003
 686.50  1.1963E+003
 687.00  1.2205E+003
 687.50  1.2323E+003
 688.00  1.2290E+003
 688.50  1.2043E+003
 689.00  1.1699E+003
 689.50  1.1335E+003
 690.00  1.0983E+003
 690.50  1.0843E+003
 691.00  1.0873E+003
 691.50  1.0995E+003
 692.00  1.1364E+003
 692.50  1.1647E+003
 693.00  1.1768E+003
 693.50  1.1679E+003
 694.00  1.1464E+003
 694.50  1.1236E+003
 695.00  1.1061E+003
 695.50  1.1059E+003
 696.00  1.0955E+003
 696.50  1.0801E+003
 697.00  1.0733E+003
 697.50  1.0681E+003
 698.00  1.0741E+003
 698.50  1.0796E+003
 699.00  1.0790E+003
 699.50  1.0802E+003
 700.00  1.0870E+003
 700.50  1.0922E+003
 701.00  1.0980E+003
 701.50  1.0920E+003
 702.00  1.0817E+003
 702.50  1.0852E+003
 703.00  1.0981E+003
 703.50  1.1238E+003
 704.00  1.1607E+003
 704.50  1.2037E+003
 705.00  1.2677E+003
 705.50  1.3480E+003
 706.00  1.4203E+003
 706.50  1.4649E+003
 707.00  1.4862E+003
 707.50  1.5115E+003
 708.00  1.5496E+003
 708.50  1.5602E+003
 709.00  1.5277E+003
 709.50  1.4653E+003
 710.00  1.3893E+003
 710.50  1.3609E+003
 711.00  1.4080E+003
 711.50  1.4728E+003
 712.00  1.4805E+003
 712.50  1.4405E+003
 713.00  1.3509E+003
 713.50  1.2471E+003
 714.00  1.1731E+003
 714.50  1.1143E+003
 715.00  1.0741E+003
 715.50  1.0506E+003
 716.00  1.0379E+003
 716.50  1.0364E+003
 717.00  1.0517E+003
 717.50  1.0681E+003
 718.00  1.0819E+003
 718.50  1.0772E+003
 719.00  1.0775E+003
 719.50  1.0659E+003
 720.00  1.0496E+003
 720.50  1.0652E+003
 721.00  1.0679E+003
 721.50  1.0643E+003
 722.00  1.0685E+003
 722.50  1.0606E+003
 723.00  1.0519E+003
 723.50  1.0493E+003
 724.00  1.0469E+003
 724.50  1.0433E+003
 725.00  1.0363E+003
 725.50  1.0290E+003
 726.00  1.0370E+003
 726.50  1.0369E+003
 727.00  1.0426E+003
 727.50  1.0501E+003
 728.00  1.0425E+003
 728.50  1.0351E+003
 729.00  1.0254E+003
 729.50  1.0158E+003
 730.00  1.0024E+003
 730.50  9.9976E+002
 731.00  1.0070E+003
 731.50  1.0102E+003
 732.00  1.0277E+003
 732.50  1.0368E+003
 733.00  1.0304E+003
 733.50  1.0317E+003
 734.00  1.0401E+003
 734.50  1.0496E+003
 735.00  1.0595E+003
 735.50  1.0605E+003
 736.00  1.0468E+003
 736.50  1.0293E+003
 737.00  1.0219E+003
 737.50  1.0277E+003
 738.00  1.0446E+003
 738.50  1.0578E+003
 739.00  1.0693E+003
 739.50  1.0720E+003
 740.00  1.0707E+003
 740.50  1.0612E+003
 741.00  1.0521E+003
 741.50  1.0393E+003
 742.00  1.0274E+003
 742.50  1.0246E+003
 743.00  1.0264E+003
 743.50  1.0353E+003
 744.00  1.0374E+003
 744.50  1.0394E+003
 745.00  1.0434E+003
 745.50  1.0411E+003
 746.00  1.0490E+003
 746.50  1.0546E+003
 747.00  1.0403E+003
 747.50  1.0319E+003
 748.00  1.0278E+003
 748.50  1.0273E+003
 749.00  1.0423E+003
 749.50  1.0580E+003
 750.00  1.0684E+003
 750.50  1.0708E+003
 751.00  1.0566E+003
 751.50  1.0359E+003
 752.00  1.0095E+003
 752.50  9.8933E+002
 753.00  9.9287E+002
 753.50  1.0083E+003
 754.00  1.0281E+003
 754.50  1.0342E+003
 755.00  1.0277E+003
 755.50  1.0169E+003
 756.00  1.0070E+003
 756.50  1.0097E+003
 757.00  1.0199E+003
 757.50  1.0319E+003
 758.00  1.0424E+003
 758.50  1.0500E+003
 759.00  1.0583E+003
 759.50  1.0580E+003
 760.00  1.0603E+003
 760.50  1.0563E+003
 761.00  1.0463E+003
 761.50  1.0441E+003
 762.00  1.0463E+003
 762.50  1.0475E+003
 763.00  1.0562E+003
 763.50  1.0530E+003
 764.00  1.0409E+003
 764.50  1.0281E+003
 765.00  1.0118E+003
 765.50  1.0047E+003
 766.00  1.0065E+003
 766.50  1.0086E+003
 767.00  1.0165E+003
 767.50  1.0309E+003
 768.00  1.0382E+003
 768.50  1.0412E+003
 769.00  1.0434E+003
 769.50  1.0423E+003
 770.00  1.0520E+003
 770.50  1.0658E+003
 771.00  1.0747E+003
 771.50  1.0821E+003
 772.00  1.0737E+003
 772.50  1.0600E+003
 773.00  1.0591E+003
 773.50  1.0425E+003
 774.00  1.0341E+003
 774.50  1.0364E+003
 775.00  1.0411E+003
 775.50  1.0513E+003
 776.00  1.0558E+003
 776.50  1.0475E+003
 777.00  1.0327E+003
 777.50  1.0221E+003
 778.00  1.0172E+003
 778.50  1.0137E+003
 779.00  1.0086E+003
 779.50  1.0033E+003
 780.00  9.9967E+002
 780.50  1.0068E+003
 781.00  1.0154E+003
 781.50  1.0206E+003
 782.00  1.0196E+003
 782.50  1.0152E+003
 783.00  1.0212E+003
 783.50  1.0298E+003
 784.00  1.0444E+003
 784.50  1.0467E+003
 785.00  1.0326E+003
 785.50  1.0146E+003
 786.00  1.0021E+003
 786.50  1.0047E+003
 787.00  1.0119E+003
 787.50  1.0148E+003
 788.00  1.0099E+003
 788.50  1.0040E+003
 789.00  1.0040E+003
 789.50  1.0088E+003
 790.00  1.0180E+003
 790.50  1.0219E+003
 791.00  1.0329E+003
 791.50  1.0460E+003
 792.00  1.0466E+003
 792.50  1.0355E+003
 793.00  1.0293E+003
 793.50  1.0225E+003
 794.00  1.0267E+003
 794.50  1.0382E+003
 795.00  1.0300E+003
 795.50  1.0169E+003
 796.00  1.0055E+003
 796.50  9.9891E+002
 797.00  1.0134E+003
 797.50  1.0293E+003
 798.00  1.0445E+003
 798.50  1.0579E+003
 799.00  1.0561E+003
 799.50  1.0507E+003
 800.00  1.0446E+003
 800.50  1.0420E+003
 801.00  1.0450E+003
 801.50  1.0483E+003
 802.00  1.0516E+003
 802.50  1.0533E+003
 803.00  1.0472E+003
 803.50  1.0312E+003
 804.00  1.0236E+003
 804.50  1.0220E+003
 805.00  1.0234E+003
 805.50  1.0338E+003
 806.00  1.0372E+003
 806.50  1.0399E+003
 807.00  1.0458E+003
 807.50  1.0477E+003
 808.00  1.0506E+003
 808.50  1.0318E+003
 809.00  1.0151E+003
 809.50  1.0109E+003
 810.00  1.0214E+003
 810.50  1.0666E+003
 811.00  1.0996E+003
 811.50  1.1158E+003
 812.00  1.1063E+003
 812.50  1.0693E+003
 813.00  1.0505E+003
 813.50  1.0422E+003
 814.00  1.0343E+003
 814.50  1.0228E+003
 815.00  1.0162E+003
 815.50  9.9972E+002
 816.00  9.9436E+002
 816.50  1.0072E+003
 817.00  1.0061E+003
 817.50  1.0085E+003
 818.00  1.0131E+003
 818.50  1.0193E+003
 819.00  1.0250E+003
 819.50  1.0416E+003
 820.00  1.0587E+003
 820.50  1.0535E+003
 821.00  1.0652E+003
 821.50  1.0709E+003
 822.00  1.0617E+003
 822.50  1.0556E+003
 823.00  1.0382E+003
 823.50  1.0216E+003
 824.00  1.0198E+003
 824.50  1.0237E+003
 825.00  1.0392E+003
 825.50  1.0553E+003
 826.00  1.0600E+003
 826.50  1.0671E+003
 827.00  1.0630E+003
 827.50  1.0466E+003
 828.00  1.0324E+003
 828.50  1.0248E+003
 829.00  1.0189E+003
 829.50  1.0252E+003
 830.00  1.0276E+003
 830.50  1.0196E+003
 831.00  1.0148E+003
 831.50  1.0101E+003
 832.00  1.0145E+003
 832.50  1.0212E+003
 833.00  1.0157E+003
 833.50  1.0092E+003
 834.00  1.0085E+003
 834.50  1.0144E+003
 835.00  1.0237E+003
 835.50  1.0245E+003
 836.00  1.0234E+003
 836.50  1.0260E+003
 837.00  1.0336E+003
 837.50  1.0384E+003
 838.00  1.0456E+003
 838.50  1.0428E+003
 839.00  1.0351E+003
 839.50  1.0417E+003
 840.00  1.0411E+003
 840.50  1.0490E+003
 841.00  1.0596E+003
 841.50  1.0523E+003
 842.00  1.0499E+003
 842.50  1.0452E+003
 843.00  1.0387E+003
 843.50  1.0344E+003
 844.00  1.0356E+003
 844.50  1.0360E+003
 845.00  1.0380E+003
 845.50  1.0462E+003
 846.00  1.0512E+003
 846.50  1.0453E+003
 847.00  1.0457E+003
 847.50  1.0501E+003
 848.00  1.0485E+003
 848.50  1.0619E+003
 849.00  1.0705E+003
 849.50  1.0663E+003
 850.00  1.0536E+003
 850.50  1.0344E+003
 851.00  1.0212E+003
 851.50  1.0204E+003
 852.00  1.0307E+003
 852.50  1.0508E+003
 853.00  1.0553E+003
 853.50  1.0642E+003
 854.00  1.0666E+003
 854.50  1.0556E+003
 855.00  1.0619E+003
 855.50  1.0528E+003
 856.00  1.0377E+003
 856.50  1.0293E+003
 857.00  1.0195E+003
 857.50  1.0289E+003
 858.00  1.0433E+003
 858.50  1.0521E+003
 859.00  1.0493E+003
 859.50  1.0390E+003
 860.00  1.0394E+003
 860.50  1.0487E+003
 861.00  1.0562E+003
 861.50  1.0501E+003
 862.00  1.0462E+003
 862.50  1.0438E+003
 863.00  1.0418E+003
 863.50  1.0576E+003
 864.00  1.0579E+003
 864.50  1.0548E+003
 865.00  1.0493E+003
 865.50  1.0309E+003
 866.00  1.0288E+003
 866.50  1.0371E+003
 867.00  1.0430E+003
 867.50  1.0431E+003
 868.00  1.0371E+003
 868.50  1.0209E+003
 869.00  1.0133E+003
 869.50  1.0215E+003
 870.00  1.0179E+003
 870.50  1.0237E+003
 871.00  1.0268E+003
 871.50  1.0209E+003
 872.00  1.0192E+003
 872.50  1.0253E+003
 873.00  1.0421E+003
 873.50  1.0461E+003
 874.00  1.0495E+003
 874.50  1.0367E+003
 875.00  1.0203E+003
 875.50  1.0217E+003
 876.00  1.0145E+003
 876.50  1.0117E+003
 877.00  1.0188E+003
 877.50  1.0208E+003
 878.00  1.0405E+003
 878.50  1.0531E+003
 879.00  1.0486E+003
 879.50  1.0388E+003
 880.00  1.0085E+003
 880.50  9.8665E+002
 881.00  9.9191E+002
 881.50  1.0026E+003
 882.00  1.0238E+003
 882.50  1.0362E+003
 883.00  1.0332E+003
 883.50  1.0258E+003
 884.00  1.0243E+003
 884.50  1.0216E+003
 885.00  1.0188E+003
 885.50  1.0166E+003
 886.00  1.0177E+003
 886.50  1.0187E+003
 887.00  1.0245E+003
 887.50  1.0294E+003
 888.00  1.0242E+003
 888.50  1.0280E+003
 889.00  1.0292E+003
 889.50  1.0344E+003
 890.00  1.0373E+003
 890.50  1.0276E+003
 891.00  1.0211E+003
 891.50  1.0134E+003
 892.00  1.0079E+003
 892.50  1.0067E+003
 893.00  1.0066E+003
 893.50  1.0116E+003
 894.00  1.0242E+003
 894.50  1.0245E+003
 895.00  1.0175E+003
 895.50  1.0149E+003
 896.00  1.0265E+003
 896.50  1.0341E+003
 897.00  1.0449E+003
 897.50  1.0420E+003
 898.00  1.0232E+003
 898.50  1.0076E+003
 899.00  1.0092E+003
 899.50  1.0111E+003
 900.00  1.0133E+003
 900.50  1.0242E+003
 901.00  1.0273E+003
 901.50  1.0284E+003
 902.00  1.0358E+003
 902.50  1.0356E+003
 903.00  1.0284E+003
 903.50  1.0340E+003
 904.00  1.0482E+003
 904.50  1.0561E+003
 905.00  1.0530E+003
 905.50  1.0458E+003
 906.00  1.0380E+003
 906.50  1.0459E+003
 907.00  1.0567E+003
 907.50  1.0513E+003
 908.00  1.0463E+003
 908.50  1.0405E+003
 909.00  1.0382E+003
 909.50  1.0386E+003
 910.00  1.0298E+003
 910.50  1.0187E+003
 911.00  1.0214E+003
 911.50  1.0328E+003
 912.00  1.0532E+003
 912.50  1.0664E+003
 913.00  1.0587E+003
 913.50  1.0509E+003
 914.00  1.0362E+003
 914.50  1.0260E+003
 915.00  1.0270E+003
 915.50  1.0352E+003
 916.00  1.0445E+003
 916.50  1.0578E+003
 917.00  1.0589E+003
 917.50  1.0575E+003
 918.00  1.0407E+003
 918.50  1.0243E+003
 919.00  1.0122E+003
 919.50  1.0036E+003
 920.00  1.0031E+003
 920.50  1.0093E+003
 921.00  1.0157E+003
 921.50  1.0298E+003
 922.00  1.0400E+003
 922.50  1.0529E+003
 923.00  1.0603E+003
 923.50  1.0593E+003
 924.00  1.0529E+003
 924.50  1.0367E+003
 925.00  1.0298E+003
 925.50  1.0310E+003
 926.00  1.0336E+003
 926.50  1.0368E+003
 927.00  1.0196E+003
 927.50  1.0166E+003
 928.00  1.0142E+003
 928.50  1.0098E+003
 929.00  1.0189E+003
 929.50  1.0147E+003
 930.00  1.0140E+003
 930.50  1.0089E+003
 931.00  1.0042E+003
 931.50  1.0094E+003
 932.00  1.0159E+003
 932.50  1.0222E+003
 933.00  1.0191E+003
 933.50  1.0184E+003
 934.00  1.0283E+003
 934.50  1.0416E+003
 935.00  1.0475E+003
 935.50  1.0501E+003
 936.00  1.0480E+003
 936.50  1.0399E+003
 937.00  1.0336E+003
 937.50  1.0225E+003
 938.00  1.0183E+003
 938.50  1.0209E+003
 939.00  1.0186E+003
 939.50  1.0105E+003
 940.00  1.0066E+003
 940.50  1.0178E+003
 941.00  1.0372E+003
 941.50  1.0420E+003
 942.00  1.0210E+003
 942.50  9.9078E+002
 943.00  9.7406E+002
 943.50  9.7943E+002
 944.00  1.0016E+003
 944.50  1.0142E+003
 945.00  1.0097E+003
 945.50  1.0047E+003
 946.00  9.9164E+002
 946.50  9.9247E+002
 947.00  1.0030E+003
 947.50  9.9750E+002
 948.00  9.9634E+002
 948.50  9.9027E+002
 949.00  9.8810E+002
 949.50  9.9590E+002
 950.00  1.0053E+003
 950.50  1.0114E+003
 951.00  1.0160E+003
 951.50  1.0094E+003
 952.00  9.9923E+002
 952.50  9.9543E+002
 953.00  9.8699E+002
 953.50  9.9681E+002
 954.00  1.0066E+003
 954.50  1.0059E+003
 955.00  1.0082E+003
 955.50  1.0032E+003
 956.00  1.0045E+003
 956.50  1.0063E+003
 957.00  9.9224E+002
 957.50  9.8080E+002
 958.00  9.7230E+002
 958.50  9.7432E+002
 959.00  9.9612E+002
 959.50  1.0175E+003
 960.00  1.0327E+003
 960.50  1.0373E+003
 961.00  1.0280E+003
 961.50  1.0076E+003
 962.00  1.0026E+003
 962.50  1.0053E+003
 963.00  1.0188E+003
 963.50  1.0282E+003
 964.00  1.0290E+003
 964.50  1.0272E+003
 965.00  1.0206E+003
 965.50  1.0172E+003
 966.00  1.0083E+003
 966.50  9.9851E+002
 967.00  9.9336E+002
 967.50  9.9345E+002
 968.00  1.0001E+003
 968.50  1.0115E+003
 969.00  1.0146E+003
 969.50  1.0139E+003
 970.00  1.0083E+003
 970.50  1.0017E+003
 971.00  9.9732E+002
 971.50  1.0035E+003
 972.00  1.0173E+003
 972.50  1.0250E+003
 973.00  1.0345E+003
 973.50  1.0224E+003
 974.00  1.0150E+003
 974.50  1.0162E+003
 975.00  1.0118E+003
 975.50  1.0171E+003
 976.00  1.0145E+003
 976.50  1.0158E+003
 977.00  1.0280E+003
 977.50  1.0334E+003
 978.00  1.0394E+003
 978.50  1.0286E+003
 979.00  1.0105E+003
 979.50  9.9947E+002
 980.00  9.9902E+002
 980.50  1.0053E+003
 981.00  1.0086E+003
 981.50  1.0252E+003
 982.00  1.0329E+003
 982.50  1.0459E+003
 983.00  1.0502E+003
 983.50  1.0396E+003
 984.00  1.0208E+003
 984.50  1.0063E+003
 985.00  1.0038E+003
 985.50  1.0083E+003
 986.00  1.0204E+003
 986.50  1.0145E+003
 987.00  1.0167E+003
 987.50  1.0331E+003
 988.00  1.0436E+003
 988.50  1.0456E+003
 989.00  1.0194E+003
 989.50  1.0034E+003
 990.00  1.0048E+003
 990.50  1.0248E+003
 991.00  1.0444E+003
 991.50  1.0458E+003
 992.00  1.0330E+003
 992.50  1.0082E+003
 993.00  9.9176E+002
 993.50  9.8820E+002
 994.00  1.0044E+003
 994.50  1.0096E+003
 995.00  1.0117E+003
 995.50  1.0034E+003
 996.00  9.9922E+002
 996.50  1.0136E+003
 997.00  1.0258E+003
 997.50  1.0289E+003
 998.00  1.0255E+003
 998.50  1.0225E+003
 999.00  1.0246E+003
 999.50  1.0404E+003
1000.00  1.0601E+003
1000.50  1.0585E+003
1001.00  1.0553E+003
1001.50  1.0332E+003
1002.00  1.0214E+003
1002.50  1.0139E+003
1003.00  1.0177E+003
1003.50  1.0236E+003
1004.00  1.0254E+003
1004.50  1.0280E+003
1005.00  1.0128E+003
1005.50  1.0050E+003
1006.00  1.0094E+003
1006.50  1.0128E+003
1007.00  1.0064E+003
1007.50  1.0152E+003
1008.00  1.0211E+003
1008.50  1.0337E+003
1009.00  1.0495E+003
1009.50  1.0489E+003
1010.00  1.0483E+003
1010.50  1.0421E+003
1011.00  1.0238E+003
1011.50  1.0286E+003
1012.00  1.0467E+003
1012.50  1.0890E+003
1013.00  1.1591E+003
1013.50  1.2043E+003
1014.00  1.2032E+003
1014.50  1.1453E+003
1015.00  1.0642E+003
1015.50  1.0201E+003
1016.00  1.0081E+003
1016.50  1.0154E+003
1017.00  1.0162E+003
1017.50  1.0134E+003
1018.00  1.0088E+003
1018.50  1.0130E+003
1019.00  1.0278E+003
1019.50  1.0334E+003
1020.00  1.0232E+003
1020.50  1.0174E+003
1021.00  1.0153E+003
1021.50  1.0309E+003
1022.00  1.0370E+003
1022.50  1.0145E+003
1023.00  9.9693E+002
1023.50  9.7793E+002
1024.00  9.7445E+002
1024.50  9.7205E+002
1025.00  9.8114E+002
1025.50  1.0027E+003
1026.00  1.0277E+003
1026.50  1.0505E+003
1027.00  1.0505E+003
1027.50  1.0438E+003
1028.00  1.0386E+003
1028.50  1.0344E+003
1029.00  1.0427E+003
1029.50  1.0441E+003
1030.00  1.0377E+003
1030.50  1.0256E+003
1031.00  1.0155E+003
1031.50  1.0079E+003
1032.00  1.0023E+003
1032.50  9.8858E+002
1033.00  9.8405E+002
1033.50  9.8746E+002
1034.00  9.8320E+002
1034.50  1.0006E+003
1035.00  9.9687E+002
1035.50  1.0071E+003
1036.00  1.0144E+003
1036.50  1.0085E+003
1037.00  1.0152E+003
1037.50  1.0088E+003
1038.00  1.0154E+003
1038.50  1.0188E+003
1039.00  1.0137E+003
1039.50  1.0003E+003
1040.00  9.9695E+002
1040.50  9.9682E+002
1041.00  1.0035E+003
1041.50  1.0100E+003
1042.00  1.0170E+003
1042.50  1.0272E+003
1043.00  1.0407E+003
1043.50  1.0350E+003
1044.00  1.0285E+003
1044.50  1.0245E+003
1045.00  1.0219E+003
1045.50  1.0285E+003
1046.00  1.0177E+003
1046.50  9.8998E+002
1047.00  9.7067E+002
1047.50  9.6362E+002
1048.00  9.6686E+002
1048.50  9.9438E+002
1049.00  1.0156E+003
1049.50  1.0389E+003
1050.00  1.0428E+003
1050.50  1.0424E+003
1051.00  1.0290E+003
1051.50  1.0154E+003
1052.00  9.9704E+002
1052.50  9.7664E+002
1053.00  9.8518E+002
1053.50  9.9937E+002
1054.00  1.0113E+003
1054.50  1.0124E+003
1055.00  1.0072E+003
1055.50  1.0070E+003
1056.00  9.9766E+002
1056.50  1.0110E+003
1057.00  1.0108E+003
1057.50  1.0193E+003
1058.00  1.0169E+003
1058.50  1.0134E+003
1059.00  1.0080E+003
1059.50  1.0018E+003
1060.00  9.9439E+002
1060.50  9.9624E+002
1061.00  1.0190E+003
1061.50  1.0505E+003
1062.00  1.0669E+003
1062.50  1.0570E+003
1063.00  1.0349E+003
1063.50  1.0093E+003
1064.00  1.0043E+003
1064.50  1.0215E+003
1065.00  1.0411E+003
1065.50  1.0486E+003
1066.00  1.0480E+003
1066.50  1.0444E+003
1067.00  1.0404E+003
1067.50  1.0394E+003
1068.00  1.0367E+003
1068.50  1.0358E+003
1069.00  1.0295E+003
1069.50  1.0084E+003
1070.00  9.8610E+002
1070.50  9.8605E+002
1071.00  9.9146E+002
1071.50  1.0115E+003
1072.00  1.0184E+003
1072.50  1.0276E+003
1073.00  1.0227E+003
1073.50  1.0099E+003
1074.00  9.9724E+002
1074.50  1.0061E+003
1075.00  1.0095E+003
1075.50  1.0186E+003
1076.00  1.0191E+003
1076.50  1.0242E+003
1077.00  1.0220E+003
1077.50  1.0042E+003
1078.00  9.8405E+002
1078.50  9.7580E+002
1079.00  9.7892E+002
1079.50  9.7618E+002
1080.00  9.6620E+002
1080.50  1.7939E+002
